##TITLE=EP142
##DATA TYPE=INFRARED SPECTRUM
##XUNITS=1/CM
##YUNITS=%T
399.264912  	96.770890 
401.193728  	96.252448 
403.122544  	102.271362 
405.051360  	99.017651 
406.980176  	96.332457 
408.908992  	97.573896 
410.837808  	95.049367 
412.766624  	94.764624 
414.695440  	94.760776 
416.624256  	91.265100 
418.553072  	90.922282 
420.481888  	88.869687 
422.410704  	88.616111 
424.339520  	88.041244 
426.268336  	88.964124 
428.197152  	89.288979 
430.125968  	89.606882 
432.054784  	88.832651 
433.983600  	86.028747 
435.912416  	85.443388 
437.841232  	86.062169 
439.770048  	85.686832 
441.698864  	86.336631 
443.627680  	86.229696 
445.556496  	84.795402 
447.485312  	85.616977 
449.414128  	86.552568 
451.342944  	86.897061 
453.271760  	87.902453 
455.200576  	88.839793 
457.129392  	89.462389 
459.058208  	90.859037 
460.987024  	90.916419 
462.915840  	91.053770 
464.844656  	92.833478 
466.773472  	93.340033 
468.702288  	93.300534 
470.631104  	93.397982 
472.559920  	92.912840 
474.488736  	92.678027 
476.417552  	93.526080 
478.346368  	94.164196 
480.275184  	93.777760 
482.204000  	93.098241 
484.132816  	92.546028 
486.061632  	91.827665 
487.990448  	91.906785 
489.919264  	92.161980 
491.848080  	91.886213 
493.776896  	91.748438 
495.705712  	92.050091 
497.634528  	92.502433 
499.563344  	91.998312 
501.492160  	91.093505 
503.420976  	91.073590 
505.349792  	90.866566 
507.278608  	90.336939 
509.207424  	89.938158 
511.136240  	89.374548 
513.065056  	88.961204 
514.993872  	88.481717 
516.922688  	88.020932 
518.851504  	87.521644 
520.780320  	87.702894 
522.709136  	87.750005 
524.637952  	87.059865 
526.566768  	86.270547 
528.495584  	86.016117 
530.424400  	85.580982 
532.353216  	85.149254 
534.282032  	84.742476 
536.210848  	84.195603 
538.139664  	83.660493 
540.068480  	83.495871 
541.997296  	83.200370 
543.926112  	82.434739 
545.854928  	81.480365 
547.783744  	80.893707 
549.712560  	80.782563 
551.641376  	80.139972 
553.570192  	79.230436 
555.499008  	78.164572 
557.427824  	77.311660 
559.356640  	76.494598 
561.285456  	75.548614 
563.214272  	74.511495 
565.143088  	73.237993 
567.071904  	71.915125 
569.000720  	70.712695 
570.929536  	69.521339 
572.858352  	68.180135 
574.787168  	66.638496 
576.715984  	65.821390 
578.644800  	66.322543 
580.573616  	67.864896 
582.502432  	71.136449 
584.431248  	76.412948 
586.360064  	82.416245 
588.288880  	87.707459 
590.217696  	91.418666 
592.146512  	93.851849 
594.075328  	95.245562 
596.004144  	96.065799 
597.932960  	96.175976 
599.861776  	95.747355 
601.790592  	95.360725 
603.719408  	94.780038 
605.648224  	93.635836 
607.577040  	92.548819 
609.505856  	91.726956 
611.434672  	90.824945 
613.363488  	89.677030 
615.292304  	88.539556 
617.221120  	87.376280 
619.149936  	86.300403 
621.078752  	85.110062 
623.007568  	83.587761 
624.936384  	81.779799 
626.865200  	79.811827 
628.794016  	78.444594 
630.722832  	76.576059 
632.651648  	74.445332 
634.580464  	72.226876 
636.509280  	69.785083 
638.438096  	67.538532 
640.366912  	65.217614 
642.295728  	63.476929 
644.224544  	62.916471 
646.153360  	64.993389 
648.082176  	70.239168 
650.010992  	78.712603 
651.939808  	88.033303 
653.868624  	95.640578 
655.797440  	99.326600 
657.726256  	101.330858 
659.655072  	102.237745 
661.583888  	103.064997 
663.512704  	102.961813 
665.441520  	102.745443 
667.370336  	102.098556 
669.299152  	101.333906 
671.227968  	101.240918 
673.156784  	100.820804 
675.085600  	100.045058 
677.014416  	98.994056 
678.943232  	99.027158 
680.872048  	98.599132 
682.800864  	98.162549 
684.729680  	97.651712 
686.658496  	97.133331 
688.587312  	96.643661 
690.516128  	96.162126 
692.444944  	95.618230 
694.373760  	95.093083 
696.302576  	94.732428 
698.231392  	94.427488 
700.160208  	94.123347 
702.089024  	93.684900 
704.017840  	93.077245 
705.946656  	92.445288 
707.875472  	91.834515 
709.804288  	91.240373 
711.733104  	90.525009 
713.661920  	89.844792 
715.590736  	89.064703 
717.519552  	88.343500 
719.448368  	87.735006 
721.377184  	87.426081 
723.306000  	87.712870 
725.234816  	88.376945 
727.163632  	88.984344 
729.092448  	89.121157 
731.021264  	89.033482 
732.950080  	88.721183 
734.878896  	88.418576 
736.807712  	87.993268 
738.736528  	87.613272 
740.665344  	87.251765 
742.594160  	86.943763 
744.522976  	86.558478 
746.451792  	86.158657 
748.380608  	85.846892 
750.309424  	85.552515 
752.238240  	85.235411 
754.167056  	84.854974 
756.095872  	84.471701 
758.024688  	84.214990 
759.953504  	83.783529 
761.882320  	83.428288 
763.811136  	82.948196 
765.739952  	82.380812 
767.668768  	81.802738 
769.597584  	81.244766 
771.526400  	80.621588 
773.455216  	79.428675 
775.384032  	77.338534 
777.312848  	74.963011 
779.241664  	73.888475 
781.170480  	74.772515 
783.099296  	76.196058 
785.028112  	77.071486 
786.956928  	77.398488 
788.885744  	77.540203 
790.814560  	77.487991 
792.743376  	77.148745 
794.672192  	76.754766 
796.601008  	76.430349 
798.529824  	76.114694 
800.458640  	75.829875 
802.387456  	75.556384 
804.316272  	75.150500 
806.245088  	74.692769 
808.173904  	74.398515 
810.102720  	74.050167 
812.031536  	73.577089 
813.960352  	73.130533 
815.889168  	72.815001 
817.817984  	72.478798 
819.746800  	72.059164 
821.675616  	71.736723 
823.604432  	71.418306 
825.533248  	70.977706 
827.462064  	70.534519 
829.390880  	70.167141 
831.319696  	69.828027 
833.248512  	69.521614 
835.177328  	69.232244 
837.106144  	68.936047 
839.034960  	68.527547 
840.963776  	68.098434 
842.892592  	67.775958 
844.821408  	67.510829 
846.750224  	67.263129 
848.679040  	67.026289 
850.607856  	66.850301 
852.536672  	66.648122 
854.465488  	66.494847 
856.394304  	66.399588 
858.323120  	66.347688 
860.251936  	66.243405 
862.180752  	66.159474 
864.109568  	66.010559 
866.038384  	65.796304 
867.967200  	65.493785 
869.896016  	65.226332 
871.824832  	65.022664 
873.753648  	64.806292 
875.682464  	64.512968 
877.611280  	64.205578 
879.540096  	64.024677 
881.468912  	63.871666 
883.397728  	63.695170 
885.326544  	63.602066 
887.255360  	63.582864 
889.184176  	63.641618 
891.112992  	63.736840 
893.041808  	63.846681 
894.970624  	64.084848 
896.899440  	64.426364 
898.828256  	64.870910 
900.757072  	65.512284 
902.685888  	66.269601 
904.614704  	67.125503 
906.543520  	68.048826 
908.472336  	68.915286 
910.401152  	69.559354 
912.329968  	69.885360 
914.258784  	69.851008 
916.187600  	69.964301 
918.116416  	70.348731 
920.045232  	70.817147 
921.974048  	71.308258 
923.902864  	71.696824 
925.831680  	72.073265 
927.760496  	72.599374 
929.689312  	73.257952 
931.618128  	74.251044 
933.546944  	75.649224 
935.475760  	77.291676 
937.404576  	78.887480 
939.333392  	80.195339 
941.262208  	80.961884 
943.191024  	81.315619 
945.119840  	81.469956 
947.048656  	81.508477 
948.977472  	81.351297 
950.906288  	81.170270 
952.835104  	81.093296 
954.763920  	81.271916 
956.692736  	81.600252 
958.621552  	82.030955 
960.550368  	82.477499 
962.479184  	82.798327 
964.408000  	83.017734 
966.336816  	83.194292 
968.265632  	83.327398 
970.194448  	83.578636 
972.123264  	83.984307 
974.052080  	84.276739 
975.980896  	84.359439 
977.909712  	84.321459 
979.838528  	84.136401 
981.767344  	83.837222 
983.696160  	83.348346 
985.624976  	82.675399 
987.553792  	81.779142 
989.482608  	80.516097 
991.411424  	78.717502 
993.340240  	76.451283 
995.269056  	74.046147 
997.197872  	72.222713 
999.126688  	71.629184 
1001.055504  	72.564648 
1002.984320  	73.723778 
1004.913136  	73.354951 
1006.841952  	71.936610 
1008.770768  	71.254489 
1010.699584  	72.139014 
1012.628400  	74.350182 
1014.557216  	77.481230 
1016.486032  	81.070427 
1018.414848  	84.037631 
1020.343664  	85.737052 
1022.272480  	86.571990 
1024.201296  	87.008716 
1026.130112  	87.203122 
1028.058928  	87.254659 
1029.987744  	87.271313 
1031.916560  	87.273858 
1033.845376  	87.223817 
1035.774192  	87.145426 
1037.703008  	87.076561 
1039.631824  	86.994279 
1041.560640  	86.895415 
1043.489456  	86.811429 
1045.418272  	86.697648 
1047.347088  	86.623927 
1049.275904  	86.512061 
1051.204720  	86.388250 
1053.133536  	86.287741 
1055.062352  	86.210390 
1056.991168  	86.124619 
1058.919984  	86.039101 
1060.848800  	85.960063 
1062.777616  	85.893762 
1064.706432  	85.829954 
1066.635248  	85.743508 
1068.564064  	85.614282 
1070.492880  	85.482441 
1072.421696  	85.384616 
1074.350512  	85.306113 
1076.279328  	85.157481 
1078.208144  	85.023884 
1080.136960  	84.889404 
1082.065776  	84.720267 
1083.994592  	84.587228 
1085.923408  	84.484363 
1087.852224  	84.301636 
1089.781040  	84.127654 
1091.709856  	84.004476 
1093.638672  	83.865095 
1095.567488  	83.707296 
1097.496304  	83.584997 
1099.425120  	83.435485 
1101.353936  	83.303695 
1103.282752  	83.188952 
1105.211568  	83.102530 
1107.140384  	83.002468 
1109.069200  	82.901267 
1110.998016  	82.774912 
1112.926832  	82.608988 
1114.855648  	82.438760 
1116.784464  	82.365857 
1118.713280  	82.237007 
1120.642096  	82.078386 
1122.570912  	81.970973 
1124.499728  	81.852777 
1126.428544  	81.747159 
1128.357360  	81.619039 
1130.286176  	81.479049 
1132.214992  	81.343284 
1134.143808  	81.163750 
1136.072624  	80.977059 
1138.001440  	80.767548 
1139.930256  	80.574477 
1141.859072  	80.362278 
1143.787888  	80.161713 
1145.716704  	79.940962 
1147.645520  	79.719796 
1149.574336  	79.491305 
1151.503152  	79.239569 
1153.431968  	79.003840 
1155.360784  	78.789593 
1157.289600  	78.534785 
1159.218416  	78.302931 
1161.147232  	78.086740 
1163.076048  	77.854363 
1165.004864  	77.607293 
1166.933680  	77.350865 
1168.862496  	77.071064 
1170.791312  	76.826752 
1172.720128  	76.553762 
1174.648944  	76.240779 
1176.577760  	75.930871 
1178.506576  	75.596671 
1180.435392  	75.219897 
1182.364208  	74.893413 
1184.293024  	74.584211 
1186.221840  	74.204759 
1188.150656  	73.828440 
1190.079472  	73.489076 
1192.008288  	73.162086 
1193.937104  	72.981682 
1195.865920  	72.796266 
1197.794736  	72.486354 
1199.723552  	71.987586 
1201.652368  	71.428439 
1203.581184  	70.827414 
1205.510000  	70.202162 
1207.438816  	69.551031 
1209.367632  	69.027924 
1211.296448  	68.757403 
1213.225264  	68.934960 
1215.154080  	69.564504 
1217.082896  	70.157836 
1219.011712  	70.123393 
1220.940528  	69.483359 
1222.869344  	68.716089 
1224.798160  	68.086066 
1226.726976  	67.739197 
1228.655792  	67.866448 
1230.584608  	68.542212 
1232.513424  	69.987047 
1234.442240  	72.237868 
1236.371056  	75.215218 
1238.299872  	78.633662 
1240.228688  	81.998597 
1242.157504  	84.533320 
1244.086320  	85.947401 
1246.015136  	86.289392 
1247.943952  	85.865525 
1249.872768  	84.702047 
1251.801584  	82.831544 
1253.730400  	80.413426 
1255.659216  	77.892660 
1257.588032  	75.554120 
1259.516848  	73.419965 
1261.445664  	71.463921 
1263.374480  	69.704539 
1265.303296  	68.038604 
1267.232112  	66.559986 
1269.160928  	65.416198 
1271.089744  	64.834381 
1273.018560  	65.145699 
1274.947376  	66.528679 
1276.876192  	68.735043 
1278.805008  	71.432067 
1280.733824  	74.355349 
1282.662640  	77.535858 
1284.591456  	80.933443 
1286.520272  	84.343112 
1288.449088  	87.416209 
1290.377904  	89.872971 
1292.306720  	91.645913 
1294.235536  	92.913678 
1296.164352  	93.951396 
1298.093168  	94.812842 
1300.021984  	95.227933 
1301.950800  	94.996986 
1303.879616  	94.142656 
1305.808432  	92.856153 
1307.737248  	91.389197 
1309.666064  	89.984667 
1311.594880  	88.659885 
1313.523696  	87.308173 
1315.452512  	86.099784 
1317.381328  	85.061072 
1319.310144  	84.593629 
1321.238960  	85.323219 
1323.167776  	87.116829 
1325.096592  	89.517400 
1327.025408  	91.843188 
1328.954224  	93.567167 
1330.883040  	94.569615 
1332.811856  	95.235240 
1334.740672  	95.177859 
1336.669488  	94.995145 
1338.598304  	94.688457 
1340.527120  	94.356615 
1342.455936  	94.112463 
1344.384752  	93.830525 
1346.313568  	93.426746 
1348.242384  	93.023453 
1350.171200  	92.607010 
1352.100016  	92.208765 
1354.028832  	91.785200 
1355.957648  	91.319248 
1357.886464  	90.880246 
1359.815280  	90.490431 
1361.744096  	90.028526 
1363.672912  	89.474312 
1365.601728  	89.016025 
1367.530544  	88.578331 
1369.459360  	88.067635 
1371.388176  	87.619051 
1373.316992  	87.124587 
1375.245808  	86.496493 
1377.174624  	85.981915 
1379.103440  	85.481796 
1381.032256  	84.982024 
1382.961072  	84.487148 
1384.889888  	83.952175 
1386.818704  	83.305867 
1388.747520  	82.580947 
1390.676336  	82.013143 
1392.605152  	81.523657 
1394.533968  	80.753409 
1396.462784  	79.933490 
1398.391600  	79.245704 
1400.320416  	78.386704 
1402.249232  	77.750007 
1404.178048  	76.990937 
1406.106864  	76.104609 
1408.035680  	75.456230 
1409.964496  	75.071672 
1411.893312  	74.750782 
1413.822128  	74.579697 
1415.750944  	74.387027 
1417.679760  	74.051830 
1419.608576  	73.018877 
1421.537392  	72.920492 
1423.466208  	73.387328 
1425.395024  	74.324034 
1427.323840  	75.995431 
1429.252656  	78.347733 
1431.181472  	81.101017 
1433.110288  	83.736645 
1435.039104  	86.378043 
1436.967920  	89.335960 
1438.896736  	91.388301 
1440.825552  	92.941009 
1442.754368  	94.391961 
1444.683184  	95.230023 
1446.612000  	96.438184 
1448.540816  	97.520740 
1450.469632  	98.176097 
1452.398448  	98.700433 
1454.327264  	99.177471 
1456.256080  	99.443066 
1458.184896  	98.795610 
1460.113712  	98.648403 
1462.042528  	98.664389 
1463.971344  	98.621481 
1465.900160  	97.968555 
1467.828976  	97.667038 
1469.757792  	97.727788 
1471.686608  	97.670315 
1473.615424  	96.780594 
1475.544240  	96.323982 
1477.473056  	95.818355 
1479.401872  	95.543783 
1481.330688  	95.215337 
1483.259504  	94.989446 
1485.188320  	94.659044 
1487.117136  	94.281996 
1489.045952  	93.552360 
1490.974768  	92.626579 
1492.903584  	92.309781 
1494.832400  	92.341147 
1496.761216  	91.743594 
1498.690032  	90.982754 
1500.618848  	90.423713 
1502.547664  	90.331844 
1504.476480  	90.752595 
1506.405296  	90.134889 
1508.334112  	88.608179 
1510.262928  	88.686855 
1512.191744  	88.577165 
1514.120560  	88.644925 
1516.049376  	88.469896 
1517.978192  	87.994193 
1519.907008  	88.114433 
1521.835824  	87.157642 
1523.764640  	86.606945 
1525.693456  	86.411511 
1527.622272  	86.001206 
1529.551088  	85.928783 
1531.479904  	85.924314 
1533.408720  	85.563020 
1535.337536  	85.135333 
1537.266352  	85.493809 
1539.195168  	85.472444 
1541.123984  	84.204287 
1543.052800  	83.833189 
1544.981616  	83.443859 
1546.910432  	83.190132 
1548.839248  	83.002900 
1550.768064  	82.470641 
1552.696880  	82.253358 
1554.625696  	81.837171 
1556.554512  	81.850782 
1558.483328  	81.144103 
1560.412144  	80.046189 
1562.340960  	80.176367 
1564.269776  	80.023920 
1566.198592  	79.691704 
1568.127408  	79.610180 
1570.056224  	78.956184 
1571.985040  	78.614885 
1573.913856  	78.621369 
1575.842672  	78.264430 
1577.771488  	77.597270 
1579.700304  	77.474639 
1581.629120  	77.246063 
1583.557936  	76.986490 
1585.486752  	76.727332 
1587.415568  	76.572586 
1589.344384  	76.333662 
1591.273200  	76.129318 
1593.202016  	75.874178 
1595.130832  	75.637158 
1597.059648  	75.413369 
1598.988464  	75.237410 
1600.917280  	74.941088 
1602.846096  	74.565286 
1604.774912  	74.185192 
1606.703728  	73.929575 
1608.632544  	73.550115 
1610.561360  	73.201642 
1612.490176  	72.872361 
1614.418992  	72.878655 
1616.347808  	72.392880 
1618.276624  	71.645030 
1620.205440  	71.501759 
1622.134256  	71.280313 
1624.063072  	70.443521 
1625.991888  	70.220513 
1627.920704  	69.820692 
1629.849520  	69.349529 
1631.778336  	69.152472 
1633.707152  	69.464362 
1635.635968  	68.634277 
1637.564784  	67.649425 
1639.493600  	67.560443 
1641.422416  	67.463492 
1643.351232  	67.587307 
1645.280048  	67.869485 
1647.208864  	66.669273 
1649.137680  	66.459382 
1651.066496  	67.307508 
1652.995312  	66.317370 
1654.924128  	65.061517 
1656.852944  	65.540845 
1658.781760  	65.795244 
1660.710576  	66.122622 
1662.639392  	66.107123 
1664.568208  	66.236483 
1666.497024  	66.923889 
1668.425840  	67.503338 
1670.354656  	67.370022 
1672.283472  	67.725221 
1674.212288  	68.353800 
1676.141104  	68.443517 
1678.069920  	68.927492 
1679.998736  	69.640322 
1681.927552  	70.673506 
1683.856368  	71.268936 
1685.785184  	71.759970 
1687.714000  	72.907876 
1689.642816  	73.925252 
1691.571632  	75.026180 
1693.500448  	76.299136 
1695.429264  	77.553791 
1697.358080  	78.535786 
1699.286896  	79.805201 
1701.215712  	80.697177 
1703.144528  	81.771460 
1705.073344  	82.804041 
1707.002160  	83.621304 
1708.930976  	84.462196 
1710.859792  	85.446089 
1712.788608  	86.625266 
1714.717424  	87.913056 
1716.646240  	89.195032 
1718.575056  	90.534322 
1720.503872  	91.592089 
1722.432688  	92.676054 
1724.361504  	93.868152 
1726.290320  	94.929468 
1728.219136  	95.484519 
1730.147952  	96.077900 
1732.076768  	96.793884 
1734.005584  	97.158875 
1735.934400  	97.410243 
1737.863216  	97.740384 
1739.792032  	97.969107 
1741.720848  	98.065364 
1743.649664  	98.225424 
1745.578480  	98.504112 
1747.507296  	98.767246 
1749.436112  	98.755287 
1751.364928  	98.720741 
1753.293744  	98.879632 
1755.222560  	99.164304 
1757.151376  	99.209513 
1759.080192  	99.390861 
1761.009008  	99.571422 
1762.937824  	99.696880 
1764.866640  	99.858524 
1766.795456  	99.892584 
1768.724272  	99.862214 
1770.653088  	99.949902 
1772.581904  	99.860840 
1774.510720  	99.791606 
1776.439536  	99.729429 
1778.368352  	99.690732 
1780.297168  	99.606714 
1782.225984  	99.598405 
1784.154800  	99.589959 
1786.083616  	99.522345 
1788.012432  	99.495013 
1789.941248  	99.554410 
1791.870064  	99.551949 
1793.798880  	99.497700 
1795.727696  	99.436401 
1797.656512  	99.443167 
1799.585328  	99.415500 
1801.514144  	99.336262 
1803.442960  	99.295652 
1805.371776  	99.321691 
1807.300592  	99.330527 
1809.229408  	99.331438 
1811.158224  	99.292826 
1813.087040  	99.295907 
1815.015856  	99.303654 
1816.944672  	99.303593 
1818.873488  	99.264519 
1820.802304  	99.275620 
1822.731120  	99.319434 
1824.659936  	99.322771 
1826.588752  	99.221930 
1828.517568  	99.181565 
1830.446384  	99.054538 
1832.375200  	99.062682 
1834.304016  	99.068002 
1836.232832  	99.091979 
1838.161648  	99.048457 
1840.090464  	99.052097 
1842.019280  	99.108129 
1843.948096  	99.094729 
1845.876912  	98.932327 
1847.805728  	98.932359 
1849.734544  	98.973639 
1851.663360  	99.031267 
1853.592176  	98.972163 
1855.520992  	98.921575 
1857.449808  	98.872992 
1859.378624  	98.902886 
1861.307440  	98.856124 
1863.236256  	98.771907 
1865.165072  	98.725860 
1867.093888  	98.679196 
1869.022704  	98.484551 
1870.951520  	98.393771 
1872.880336  	98.307177 
1874.809152  	98.203719 
1876.737968  	97.964577 
1878.666784  	97.823361 
1880.595600  	97.706702 
1882.524416  	97.644894 
1884.453232  	97.595169 
1886.382048  	97.684262 
1888.310864  	97.716165 
1890.239680  	97.800104 
1892.168496  	97.969997 
1894.097312  	98.072397 
1896.026128  	98.019163 
1897.954944  	98.023941 
1899.883760  	98.004779 
1901.812576  	97.941578 
1903.741392  	97.900196 
1905.670208  	98.021746 
1907.599024  	98.034895 
1909.527840  	97.909068 
1911.456656  	97.796751 
1913.385472  	97.816323 
1915.314288  	97.657902 
1917.243104  	97.572691 
1919.171920  	97.484138 
1921.100736  	97.570017 
1923.029552  	97.616872 
1924.958368  	97.685663 
1926.887184  	97.805816 
1928.816000  	98.038712 
1930.744816  	97.970599 
1932.673632  	97.991340 
1934.602448  	98.075728 
1936.531264  	98.144538 
1938.460080  	98.093031 
1940.388896  	98.283794 
1942.317712  	98.431565 
1944.246528  	98.438048 
1946.175344  	98.230470 
1948.104160  	98.305902 
1950.032976  	98.339560 
1951.961792  	98.357006 
1953.890608  	98.448571 
1955.819424  	98.470519 
1957.748240  	98.298097 
1959.677056  	98.263699 
1961.605872  	98.315959 
1963.534688  	98.302172 
1965.463504  	98.164214 
1967.392320  	98.217616 
1969.321136  	98.322280 
1971.249952  	98.240270 
1973.178768  	98.086041 
1975.107584  	98.032403 
1977.036400  	97.881590 
1978.965216  	97.912002 
1980.894032  	97.686952 
1982.822848  	97.695583 
1984.751664  	97.684148 
1986.680480  	97.801406 
1988.609296  	97.443613 
1990.538112  	97.263272 
1992.466928  	97.291244 
1994.395744  	97.660830 
1996.324560  	97.898484 
1998.253376  	97.815966 
2000.182192  	97.778656 
2002.111008  	97.762768 
2004.039824  	97.530431 
2005.968640  	97.681059 
2007.897456  	97.399298 
2009.826272  	97.343341 
2011.755088  	97.124881 
2013.683904  	97.242395 
2015.612720  	97.576793 
2017.541536  	97.474094 
2019.470352  	97.322307 
2021.399168  	97.468441 
2023.327984  	96.862346 
2025.256800  	96.865207 
2027.185616  	96.948866 
2029.114432  	97.271808 
2031.043248  	97.252068 
2032.972064  	97.275816 
2034.900880  	97.271301 
2036.829696  	97.537950 
2038.758512  	97.333152 
2040.687328  	96.872803 
2042.616144  	97.035854 
2044.544960  	97.474132 
2046.473776  	97.194681 
2048.402592  	97.019472 
2050.331408  	97.053353 
2052.260224  	97.133194 
2054.189040  	97.212712 
2056.117856  	97.246352 
2058.046672  	96.894832 
2059.975488  	96.844960 
2061.904304  	97.108966 
2063.833120  	97.212394 
2065.761936  	96.807046 
2067.690752  	96.646096 
2069.619568  	96.717924 
2071.548384  	96.775146 
2073.477200  	96.687989 
2075.406016  	96.684657 
2077.334832  	96.511411 
2079.263648  	96.650899 
2081.192464  	96.599047 
2083.121280  	96.501236 
2085.050096  	96.462764 
2086.978912  	96.552968 
2088.907728  	96.583798 
2090.836544  	96.519334 
2092.765360  	96.389270 
2094.694176  	96.438780 
2096.622992  	96.325281 
2098.551808  	96.272078 
2100.480624  	96.217212 
2102.409440  	96.467313 
2104.338256  	96.432180 
2106.267072  	96.184793 
2108.195888  	96.149055 
2110.124704  	96.239511 
2112.053520  	96.225447 
2113.982336  	96.126015 
2115.911152  	96.099703 
2117.839968  	96.218725 
2119.768784  	96.266847 
2121.697600  	96.268995 
2123.626416  	96.149568 
2125.555232  	96.224931 
2127.484048  	96.329373 
2129.412864  	96.223003 
2131.341680  	96.121947 
2133.270496  	95.948916 
2135.199312  	95.732217 
2137.128128  	95.582609 
2139.056944  	95.661599 
2140.985760  	95.997776 
2142.914576  	95.853950 
2144.843392  	95.769888 
2146.772208  	95.756542 
2148.701024  	95.948371 
2150.629840  	95.990446 
2152.558656  	95.902366 
2154.487472  	95.585160 
2156.416288  	95.721094 
2158.345104  	95.392939 
2160.273920  	95.639365 
2162.202736  	95.920365 
2164.131552  	95.578876 
2166.060368  	95.035016 
2167.989184  	95.038197 
2169.918000  	94.996441 
2171.846816  	95.291852 
2173.775632  	95.535487 
2175.704448  	95.349421 
2177.633264  	94.955537 
2179.562080  	94.802355 
2181.490896  	94.347623 
2183.419712  	94.360210 
2185.348528  	94.503277 
2187.277344  	94.737655 
2189.206160  	94.769845 
2191.134976  	94.943447 
2193.063792  	94.716104 
2194.992608  	94.419900 
2196.921424  	94.403192 
2198.850240  	94.728623 
2200.779056  	94.797351 
2202.707872  	94.634598 
2204.636688  	94.496368 
2206.565504  	94.376355 
2208.494320  	94.217278 
2210.423136  	94.620149 
2212.351952  	94.592246 
2214.280768  	94.344437 
2216.209584  	94.337660 
2218.138400  	94.276323 
2220.067216  	94.100226 
2221.996032  	93.992175 
2223.924848  	93.835532 
2225.853664  	93.771389 
2227.782480  	93.840604 
2229.711296  	93.750891 
2231.640112  	93.576426 
2233.568928  	93.609834 
2235.497744  	93.602655 
2237.426560  	93.556289 
2239.355376  	93.528183 
2241.284192  	93.438786 
2243.213008  	93.267155 
2245.141824  	93.399795 
2247.070640  	93.352101 
2248.999456  	93.225995 
2250.928272  	93.167482 
2252.857088  	93.250013 
2254.785904  	93.169462 
2256.714720  	93.152806 
2258.643536  	93.232818 
2260.572352  	93.328239 
2262.501168  	93.305289 
2264.429984  	93.285344 
2266.358800  	93.251880 
2268.287616  	93.277900 
2270.216432  	93.312814 
2272.145248  	93.277128 
2274.074064  	93.216410 
2276.002880  	93.257106 
2277.931696  	93.191865 
2279.860512  	93.096349 
2281.789328  	93.028891 
2283.718144  	93.014000 
2285.646960  	92.946923 
2287.575776  	92.954068 
2289.504592  	92.935370 
2291.433408  	92.870603 
2293.362224  	92.862359 
2295.291040  	92.912735 
2297.219856  	92.780018 
2299.148672  	92.672364 
2301.077488  	92.573099 
2303.006304  	92.499180 
2304.935120  	92.341263 
2306.863936  	92.349978 
2308.792752  	92.395301 
2310.721568  	92.355083 
2312.650384  	92.281476 
2314.579200  	92.242847 
2316.508016  	92.202242 
2318.436832  	92.159215 
2320.365648  	91.948294 
2322.294464  	91.808739 
2324.223280  	91.772621 
2326.152096  	91.839897 
2328.080912  	91.924245 
2330.009728  	91.987041 
2331.938544  	91.963486 
2333.867360  	91.925860 
2335.796176  	91.917684 
2337.724992  	91.949269 
2339.653808  	91.943669 
2341.582624  	91.840674 
2343.511440  	91.607135 
2345.440256  	91.258208 
2347.369072  	91.044698 
2349.297888  	91.200353 
2351.226704  	91.408829 
2353.155520  	91.468626 
2355.084336  	91.518665 
2357.013152  	91.666265 
2358.941968  	91.613284 
2360.870784  	91.392520 
2362.799600  	91.215209 
2364.728416  	91.258305 
2366.657232  	91.369638 
2368.586048  	91.272953 
2370.514864  	91.028868 
2372.443680  	90.957905 
2374.372496  	90.836925 
2376.301312  	90.734523 
2378.230128  	90.716672 
2380.158944  	90.750964 
2382.087760  	90.802897 
2384.016576  	90.902370 
2385.945392  	91.014334 
2387.874208  	91.047911 
2389.803024  	90.983680 
2391.731840  	90.909463 
2393.660656  	90.860279 
2395.589472  	90.869959 
2397.518288  	90.818026 
2399.447104  	90.765078 
2401.375920  	90.633401 
2403.304736  	90.583428 
2405.233552  	90.622610 
2407.162368  	90.540207 
2409.091184  	90.425109 
2411.020000  	90.307325 
2412.948816  	90.269771 
2414.877632  	90.303633 
2416.806448  	90.254378 
2418.735264  	90.106045 
2420.664080  	90.033277 
2422.592896  	89.988555 
2424.521712  	89.884211 
2426.450528  	89.835808 
2428.379344  	89.782447 
2430.308160  	89.768417 
2432.236976  	89.709408 
2434.165792  	89.597518 
2436.094608  	89.616606 
2438.023424  	89.597284 
2439.952240  	89.410992 
2441.881056  	89.272627 
2443.809872  	89.251187 
2445.738688  	89.228166 
2447.667504  	89.169814 
2449.596320  	89.098262 
2451.525136  	89.047682 
2453.453952  	88.984982 
2455.382768  	88.958201 
2457.311584  	88.880572 
2459.240400  	88.767978 
2461.169216  	88.674767 
2463.098032  	88.539159 
2465.026848  	88.460423 
2466.955664  	88.306058 
2468.884480  	88.156370 
2470.813296  	88.075034 
2472.742112  	88.014251 
2474.670928  	87.930679 
2476.599744  	87.879357 
2478.528560  	87.791063 
2480.457376  	87.737223 
2482.386192  	87.661210 
2484.315008  	87.562014 
2486.243824  	87.413980 
2488.172640  	87.301392 
2490.101456  	87.214070 
2492.030272  	87.132723 
2493.959088  	87.064198 
2495.887904  	86.927254 
2497.816720  	86.738252 
2499.745536  	86.637610 
2501.674352  	86.519902 
2503.603168  	86.433510 
2505.531984  	86.376614 
2507.460800  	86.323468 
2509.389616  	86.247046 
2511.318432  	86.142920 
2513.247248  	86.101128 
2515.176064  	86.220812 
2517.104880  	86.288647 
2519.033696  	86.278704 
2520.962512  	86.253604 
2522.891328  	86.219591 
2524.820144  	86.120863 
2526.748960  	86.084610 
2528.677776  	86.016490 
2530.606592  	85.953263 
2532.535408  	86.005862 
2534.464224  	86.076649 
2536.393040  	86.276531 
2538.321856  	86.487265 
2540.250672  	86.690235 
2542.179488  	86.972763 
2544.108304  	87.252073 
2546.037120  	87.483335 
2547.965936  	87.658293 
2549.894752  	87.696892 
2551.823568  	87.700751 
2553.752384  	87.705987 
2555.681200  	87.610859 
2557.610016  	87.452732 
2559.538832  	87.411937 
2561.467648  	87.528591 
2563.396464  	87.586965 
2565.325280  	87.481912 
2567.254096  	87.418892 
2569.182912  	87.452399 
2571.111728  	87.384739 
2573.040544  	87.344797 
2574.969360  	87.313873 
2576.898176  	87.291074 
2578.826992  	87.209311 
2580.755808  	87.228654 
2582.684624  	87.343635 
2584.613440  	87.478253 
2586.542256  	87.718569 
2588.471072  	88.003955 
2590.399888  	88.199560 
2592.328704  	88.287250 
2594.257520  	88.307040 
2596.186336  	88.329321 
2598.115152  	88.314158 
2600.043968  	88.298567 
2601.972784  	88.211774 
2603.901600  	88.170194 
2605.830416  	88.158684 
2607.759232  	88.093974 
2609.688048  	88.040544 
2611.616864  	88.028253 
2613.545680  	88.001508 
2615.474496  	87.927953 
2617.403312  	87.847045 
2619.332128  	87.779258 
2621.260944  	87.646112 
2623.189760  	87.517349 
2625.118576  	87.391812 
2627.047392  	87.282258 
2628.976208  	87.234646 
2630.905024  	87.148493 
2632.833840  	87.060275 
2634.762656  	86.966392 
2636.691472  	86.843203 
2638.620288  	86.752960 
2640.549104  	86.663536 
2642.477920  	86.575207 
2644.406736  	86.508907 
2646.335552  	86.403614 
2648.264368  	86.309406 
2650.193184  	86.301144 
2652.122000  	86.263315 
2654.050816  	86.197341 
2655.979632  	86.156807 
2657.908448  	86.142659 
2659.837264  	86.180357 
2661.766080  	86.243170 
2663.694896  	86.305453 
2665.623712  	86.358572 
2667.552528  	86.368561 
2669.481344  	86.393499 
2671.410160  	86.407192 
2673.338976  	86.411673 
2675.267792  	86.465263 
2677.196608  	86.467195 
2679.125424  	86.417004 
2681.054240  	86.421779 
2682.983056  	86.453026 
2684.911872  	86.490457 
2686.840688  	86.535814 
2688.769504  	86.542745 
2690.698320  	86.533238 
2692.627136  	86.569326 
2694.555952  	86.647449 
2696.484768  	86.723465 
2698.413584  	86.812519 
2700.342400  	86.911469 
2702.271216  	87.014182 
2704.200032  	87.128654 
2706.128848  	87.248038 
2708.057664  	87.388774 
2709.986480  	87.457235 
2711.915296  	87.482803 
2713.844112  	87.560325 
2715.772928  	87.646757 
2717.701744  	87.661393 
2719.630560  	87.693236 
2721.559376  	87.725058 
2723.488192  	87.763789 
2725.417008  	87.805241 
2727.345824  	87.834110 
2729.274640  	87.857473 
2731.203456  	87.895104 
2733.132272  	87.907129 
2735.061088  	87.913937 
2736.989904  	87.886183 
2738.918720  	87.835909 
2740.847536  	87.794595 
2742.776352  	87.763293 
2744.705168  	87.697189 
2746.633984  	87.629216 
2748.562800  	87.589323 
2750.491616  	87.547829 
2752.420432  	87.484564 
2754.349248  	87.464801 
2756.278064  	87.427491 
2758.206880  	87.396378 
2760.135696  	87.339834 
2762.064512  	87.238365 
2763.993328  	87.170297 
2765.922144  	87.090155 
2767.850960  	87.015908 
2769.779776  	86.967170 
2771.708592  	86.901054 
2773.637408  	86.804505 
2775.566224  	86.681259 
2777.495040  	86.615087 
2779.423856  	86.525560 
2781.352672  	86.394916 
2783.281488  	86.310475 
2785.210304  	86.277162 
2787.139120  	86.249791 
2789.067936  	86.204251 
2790.996752  	86.147976 
2792.925568  	86.074965 
2794.854384  	85.990491 
2796.783200  	85.910846 
2798.712016  	85.870275 
2800.640832  	85.821129 
2802.569648  	85.766731 
2804.498464  	85.707672 
2806.427280  	85.665286 
2808.356096  	85.651758 
2810.284912  	85.620934 
2812.213728  	85.573207 
2814.142544  	85.503838 
2816.071360  	85.449903 
2818.000176  	85.436760 
2819.928992  	85.420548 
2821.857808  	85.428651 
2823.786624  	85.417775 
2825.715440  	85.378758 
2827.644256  	85.368819 
2829.573072  	85.393546 
2831.501888  	85.450457 
2833.430704  	85.494925 
2835.359520  	85.523816 
2837.288336  	85.554005 
2839.217152  	85.561484 
2841.145968  	85.566038 
2843.074784  	85.622014 
2845.003600  	85.615357 
2846.932416  	85.565214 
2848.861232  	85.538893 
2850.790048  	85.526599 
2852.718864  	85.499289 
2854.647680  	85.402271 
2856.576496  	85.310789 
2858.505312  	85.309373 
2860.434128  	85.342971 
2862.362944  	85.332639 
2864.291760  	85.311758 
2866.220576  	85.389908 
2868.149392  	85.484015 
2870.078208  	85.534284 
2872.007024  	85.602867 
2873.935840  	85.687157 
2875.864656  	85.774136 
2877.793472  	85.873554 
2879.722288  	85.999519 
2881.651104  	86.141670 
2883.579920  	86.264768 
2885.508736  	86.380137 
2887.437552  	86.480583 
2889.366368  	86.577514 
2891.295184  	86.633232 
2893.224000  	86.660556 
2895.152816  	86.717568 
2897.081632  	86.737329 
2899.010448  	86.712174 
2900.939264  	86.688509 
2902.868080  	86.645600 
2904.796896  	86.665794 
2906.725712  	86.726591 
2908.654528  	86.708826 
2910.583344  	86.730352 
2912.512160  	86.829125 
2914.440976  	86.935969 
2916.369792  	87.004965 
2918.298608  	87.024035 
2920.227424  	87.049658 
2922.156240  	87.093582 
2924.085056  	87.139195 
2926.013872  	87.189733 
2927.942688  	87.184293 
2929.871504  	87.180199 
2931.800320  	87.177488 
2933.729136  	87.163194 
2935.657952  	87.126780 
2937.586768  	87.082212 
2939.515584  	87.044223 
2941.444400  	87.022985 
2943.373216  	87.021267 
2945.302032  	87.027473 
2947.230848  	87.060247 
2949.159664  	87.071949 
2951.088480  	87.129650 
2953.017296  	87.155378 
2954.946112  	87.163081 
2956.874928  	87.216062 
2958.803744  	87.201495 
2960.732560  	87.142174 
2962.661376  	87.088541 
2964.590192  	87.080828 
2966.519008  	87.023068 
2968.447824  	87.006628 
2970.376640  	86.957760 
2972.305456  	86.889005 
2974.234272  	86.874453 
2976.163088  	86.839502 
2978.091904  	86.796854 
2980.020720  	86.781164 
2981.949536  	86.782053 
2983.878352  	86.772993 
2985.807168  	86.739470 
2987.735984  	86.749590 
2989.664800  	86.758200 
2991.593616  	86.822518 
2993.522432  	86.906083 
2995.451248  	86.962952 
2997.380064  	87.022610 
2999.308880  	87.062892 
3001.237696  	87.080657 
3003.166512  	87.131617 
3005.095328  	87.221521 
3007.024144  	87.315319 
3008.952960  	87.390210 
3010.881776  	87.422835 
3012.810592  	87.442885 
3014.739408  	87.503997 
3016.668224  	87.585333 
3018.597040  	87.637615 
3020.525856  	87.714731 
3022.454672  	87.793046 
3024.383488  	87.870923 
3026.312304  	87.916703 
3028.241120  	87.935675 
3030.169936  	87.949888 
3032.098752  	87.950452 
3034.027568  	88.003778 
3035.956384  	88.089755 
3037.885200  	88.098446 
3039.814016  	88.125400 
3041.742832  	88.144620 
3043.671648  	88.176725 
3045.600464  	88.216287 
3047.529280  	88.215579 
3049.458096  	88.170456 
3051.386912  	88.237122 
3053.315728  	88.304121 
3055.244544  	88.308574 
3057.173360  	88.313820 
3059.102176  	88.223023 
3061.030992  	88.155628 
3062.959808  	88.154610 
3064.888624  	88.034466 
3066.817440  	87.861044 
3068.746256  	87.612331 
3070.675072  	87.274852 
3072.603888  	86.829811 
3074.532704  	86.313441 
3076.461520  	85.657838 
3078.390336  	84.792591 
3080.319152  	83.937988 
3082.247968  	83.758157 
3084.176784  	84.623891 
3086.105600  	86.109982 
3088.034416  	87.735109 
3089.963232  	89.124124 
3091.892048  	89.962898 
3093.820864  	90.317564 
3095.749680  	90.316329 
3097.678496  	90.144961 
3099.607312  	90.092075 
3101.536128  	90.254928 
3103.464944  	90.658091 
3105.393760  	91.131383 
3107.322576  	91.497342 
3109.251392  	91.802764 
3111.180208  	91.978114 
3113.109024  	92.114151 
3115.037840  	92.222598 
3116.966656  	92.320890 
3118.895472  	92.408994 
3120.824288  	92.456364 
3122.753104  	92.514843 
3124.681920  	92.622631 
3126.610736  	92.720104 
3128.539552  	92.821014 
3130.468368  	92.829575 
3132.397184  	92.888150 
3134.326000  	92.931752 
3136.254816  	92.951657 
3138.183632  	93.104567 
3140.112448  	93.254138 
3142.041264  	93.361248 
3143.970080  	93.444935 
3145.898896  	93.535166 
3147.827712  	93.541036 
3149.756528  	93.594908 
3151.685344  	93.650255 
3153.614160  	93.713439 
3155.542976  	93.850851 
3157.471792  	93.983776 
3159.400608  	94.009727 
3161.329424  	94.010705 
3163.258240  	94.065498 
3165.187056  	94.105557 
3167.115872  	94.180756 
3169.044688  	94.294760 
3170.973504  	94.396357 
3172.902320  	94.433491 
3174.831136  	94.506794 
3176.759952  	94.531849 
3178.688768  	94.629028 
3180.617584  	94.763062 
3182.546400  	94.792787 
3184.475216  	94.794144 
3186.404032  	94.916601 
3188.332848  	95.003660 
3190.261664  	95.126896 
3192.190480  	95.240173 
3194.119296  	95.321343 
3196.048112  	95.444283 
3197.976928  	95.523534 
3199.905744  	95.534198 
3201.834560  	95.547136 
3203.763376  	95.674631 
3205.692192  	95.759884 
3207.621008  	95.853703 
3209.549824  	96.001479 
3211.478640  	96.064431 
3213.407456  	96.060700 
3215.336272  	96.028795 
3217.265088  	96.082062 
3219.193904  	96.162913 
3221.122720  	96.279675 
3223.051536  	96.364733 
3224.980352  	96.397286 
3226.909168  	96.458669 
3228.837984  	96.520891 
3230.766800  	96.668853 
3232.695616  	96.785335 
3234.624432  	96.868313 
3236.553248  	96.893179 
3238.482064  	96.940943 
3240.410880  	96.982622 
3242.339696  	96.932659 
3244.268512  	96.973344 
3246.197328  	97.092763 
3248.126144  	97.174080 
3250.054960  	97.193748 
3251.983776  	97.272229 
3253.912592  	97.312874 
3255.841408  	97.377618 
3257.770224  	97.405555 
3259.699040  	97.481011 
3261.627856  	97.507482 
3263.556672  	97.538478 
3265.485488  	97.589024 
3267.414304  	97.619028 
3269.343120  	97.726043 
3271.271936  	97.841904 
3273.200752  	97.962804 
3275.129568  	97.970551 
3277.058384  	97.951045 
3278.987200  	98.073923 
3280.916016  	98.122203 
3282.844832  	98.160347 
3284.773648  	98.246126 
3286.702464  	98.246911 
3288.631280  	98.273383 
3290.560096  	98.387074 
3292.488912  	98.372414 
3294.417728  	98.485764 
3296.346544  	98.617359 
3298.275360  	98.663071 
3300.204176  	98.701191 
3302.132992  	98.670910 
3304.061808  	98.605989 
3305.990624  	98.637170 
3307.919440  	98.762731 
3309.848256  	98.804643 
3311.777072  	98.766723 
3313.705888  	98.838667 
3315.634704  	98.964804 
3317.563520  	99.049771 
3319.492336  	99.034827 
3321.421152  	99.017224 
3323.349968  	99.075058 
3325.278784  	99.114103 
3327.207600  	99.148268 
3329.136416  	99.165744 
3331.065232  	99.149492 
3332.994048  	99.131149 
3334.922864  	99.096801 
3336.851680  	99.110855 
3338.780496  	99.214602 
3340.709312  	99.324714 
3342.638128  	99.361980 
3344.566944  	99.363208 
3346.495760  	99.308102 
3348.424576  	99.412405 
3350.353392  	99.481994 
3352.282208  	99.419690 
3354.211024  	99.408109 
3356.139840  	99.458938 
3358.068656  	99.432068 
3359.997472  	99.393844 
3361.926288  	99.375120 
3363.855104  	99.417337 
3365.783920  	99.465789 
3367.712736  	99.540283 
3369.641552  	99.629410 
3371.570368  	99.614010 
3373.499184  	99.495019 
3375.428000  	99.505104 
3377.356816  	99.554307 
3379.285632  	99.590690 
3381.214448  	99.608104 
3383.143264  	99.634751 
3385.072080  	99.603957 
3387.000896  	99.585180 
3388.929712  	99.578041 
3390.858528  	99.654148 
3392.787344  	99.715682 
3394.716160  	99.795625 
3396.644976  	99.831775 
3398.573792  	99.772624 
3400.502608  	99.693805 
3402.431424  	99.769355 
3404.360240  	99.791201 
3406.289056  	99.760516 
3408.217872  	99.827285 
3410.146688  	99.887397 
3412.075504  	99.952629 
3414.004320  	99.992812 
3415.933136  	99.939970 
3417.861952  	99.912115 
3419.790768  	99.781579 
3421.719584  	99.784992 
3423.648400  	99.877120 
3425.577216  	99.856398 
3427.506032  	99.814142 
3429.434848  	99.910822 
3431.363664  	99.988714 
3433.292480  	100.026866 
3435.221296  	99.928598 
3437.150112  	99.938333 
3439.078928  	99.968719 
3441.007744  	99.894991 
3442.936560  	99.946324 
3444.865376  	100.015140 
3446.794192  	99.777871 
3448.723008  	99.779567 
3450.651824  	99.936451 
3452.580640  	99.969158 
3454.509456  	99.865081 
3456.438272  	99.851774 
3458.367088  	99.888488 
3460.295904  	99.956403 
3462.224720  	99.978172 
3464.153536  	99.904180 
3466.082352  	99.887118 
3468.011168  	99.975704 
3469.939984  	99.873783 
3471.868800  	99.839217 
3473.797616  	99.907715 
3475.726432  	100.003586 
3477.655248  	100.025345 
3479.584064  	99.923021 
3481.512880  	99.881814 
3483.441696  	100.028389 
3485.370512  	100.035616 
3487.299328  	99.873969 
3489.228144  	99.812467 
3491.156960  	99.919459 
3493.085776  	99.851694 
3495.014592  	99.804215 
3496.943408  	99.913709 
3498.872224  	99.955215 
3500.801040  	99.918421 
3502.729856  	99.778127 
3504.658672  	99.825041 
3506.587488  	99.979628 
3508.516304  	99.889491 
3510.445120  	99.900781 
3512.373936  	99.946238 
3514.302752  	99.964114 
3516.231568  	99.841565 
3518.160384  	99.864754 
3520.089200  	100.013102 
3522.018016  	99.851832 
3523.946832  	99.604078 
3525.875648  	99.676830 
3527.804464  	99.689880 
3529.733280  	99.753120 
3531.662096  	99.895685 
3533.590912  	99.936298 
3535.519728  	99.827759 
3537.448544  	99.880013 
3539.377360  	99.967460 
3541.306176  	99.983776 
3543.234992  	99.979273 
3545.163808  	99.996365 
3547.092624  	99.901961 
3549.021440  	99.916800 
3550.950256  	99.875049 
3552.879072  	99.858829 
3554.807888  	99.908945 
3556.736704  	99.903128 
3558.665520  	99.932618 
3560.594336  	99.915438 
3562.523152  	99.911233 
3564.451968  	99.884751 
3566.380784  	99.701729 
3568.309600  	99.701492 
3570.238416  	99.785324 
3572.167232  	99.895796 
3574.096048  	99.918951 
3576.024864  	99.876095 
3577.953680  	99.892654 
3579.882496  	99.924850 
3581.811312  	99.944250 
3583.740128  	100.103643 
3585.668944  	100.055113 
3587.597760  	99.751098 
3589.526576  	99.876147 
3591.455392  	99.936697 
3593.384208  	99.895896 
3595.313024  	99.806713 
3597.241840  	99.848012 
3599.170656  	99.910046 
3601.099472  	99.812109 
3603.028288  	99.859506 
3604.957104  	99.994399 
3606.885920  	100.083590 
3608.814736  	99.962233 
3610.743552  	99.962801 
3612.672368  	99.880165 
3614.601184  	99.893265 
3616.530000  	100.074026 
3618.458816  	99.987753 
3620.387632  	99.814538 
3622.316448  	99.885162 
3624.245264  	100.066358 
3626.174080  	100.239472 
3628.102896  	99.752757 
3630.031712  	99.547745 
3631.960528  	99.734392 
3633.889344  	99.655898 
3635.818160  	99.670171 
3637.746976  	99.743154 
3639.675792  	99.831133 
3641.604608  	99.846089 
3643.533424  	100.076426 
3645.462240  	100.396291 
3647.391056  	100.273197 
3649.319872  	99.981520 
3651.248688  	99.875457 
3653.177504  	100.056922 
3655.106320  	100.032747 
3657.035136  	99.879479 
3658.963952  	99.828234 
3660.892768  	99.903070 
3662.821584  	99.993860 
3664.750400  	100.027806 
3666.679216  	100.127072 
3668.608032  	100.100519 
3670.536848  	99.976105 
3672.465664  	100.169985 
3674.394480  	100.019482 
3676.323296  	99.866099 
3678.252112  	99.911967 
3680.180928  	99.852369 
3682.109744  	99.873671 
3684.038560  	99.983111 
3685.967376  	100.154140 
3687.896192  	100.140553 
3689.825008  	99.945307 
3691.753824  	99.812521 
3693.682640  	99.855420 
3695.611456  	99.861261 
3697.540272  	99.926917 
3699.469088  	100.005449 
3701.397904  	99.917564 
3703.326720  	99.891075 
3705.255536  	99.933565 
3707.184352  	100.055609 
3709.113168  	100.106931 
3711.041984  	99.872353 
3712.970800  	99.778731 
3714.899616  	99.924108 
3716.828432  	99.989110 
3718.757248  	100.003798 
3720.686064  	99.936139 
3722.614880  	99.803436 
3724.543696  	99.777880 
3726.472512  	99.786725 
3728.401328  	99.974180 
3730.330144  	100.121018 
3732.258960  	100.151176 
3734.187776  	99.996531 
3736.116592  	99.672892 
3738.045408  	99.744743 
3739.974224  	99.832238 
3741.903040  	100.006355 
3743.831856  	99.820216 
3745.760672  	99.844373 
3747.689488  	99.989339 
3749.618304  	100.022588 
3751.547120  	99.829078 
3753.475936  	99.747363 
3755.404752  	99.822753 
3757.333568  	99.838326 
3759.262384  	99.730420 
3761.191200  	99.713368 
3763.120016  	99.764552 
3765.048832  	99.679145 
3766.977648  	99.770290 
3768.906464  	99.814491 
3770.835280  	99.822799 
3772.764096  	99.869222 
3774.692912  	99.822086 
3776.621728  	99.827139 
3778.550544  	99.709231 
3780.479360  	99.684673 
3782.408176  	99.673043 
3784.336992  	99.550383 
3786.265808  	99.531563 
3788.194624  	99.580364 
3790.123440  	99.577887 
3792.052256  	99.597845 
3793.981072  	99.641487 
3795.909888  	99.641105 
3797.838704  	99.793746 
3799.767520  	99.880858 
3801.696336  	99.544414 
3803.625152  	99.643077 
3805.553968  	99.637596 
3807.482784  	99.516877 
3809.411600  	99.562468 
3811.340416  	99.584469 
3813.269232  	99.782433 
3815.198048  	99.738767 
3817.126864  	99.741609 
3819.055680  	99.770830 
3820.984496  	99.379740 
3822.913312  	99.528085 
3824.842128  	99.583299 
3826.770944  	99.528152 
3828.699760  	99.570954 
3830.628576  	99.567995 
3832.557392  	99.600671 
3834.486208  	99.735344 
3836.415024  	99.674957 
3838.343840  	99.473739 
3840.272656  	99.475444 
3842.201472  	99.484487 
3844.130288  	99.401167 
3846.059104  	99.481497 
3847.987920  	99.562298 
3849.916736  	99.680956 
3851.845552  	99.607558 
3853.774368  	99.211687 
3855.703184  	99.299713 
3857.632000  	99.383803 
3859.560816  	99.549883 
3861.489632  	99.581384 
3863.418448  	99.475385 
3865.347264  	99.421145 
3867.276080  	99.551639 
3869.204896  	99.302858 
3871.133712  	99.340823 
3873.062528  	99.427523 
3874.991344  	99.381878 
3876.920160  	99.529221 
3878.848976  	99.518087 
3880.777792  	99.356650 
3882.706608  	99.510137 
3884.635424  	99.397197 
3886.564240  	99.236092 
3888.493056  	99.352899 
3890.421872  	99.291865 
3892.350688  	99.234478 
3894.279504  	99.347363 
3896.208320  	99.480180 
3898.137136  	99.471556 
3900.065952  	99.414510 
3901.994768  	99.421995 
3903.923584  	99.238785 
3905.852400  	99.116771 
3907.781216  	99.182206 
3909.710032  	99.248482 
3911.638848  	99.337330 
3913.567664  	99.473120 
3915.496480  	99.400729 
3917.425296  	99.239343 
3919.354112  	99.216786 
3921.282928  	99.234121 
3923.211744  	99.303399 
3925.140560  	99.215527 
3927.069376  	99.229294 
3928.998192  	99.256873 
3930.927008  	99.221074 
3932.855824  	99.120847 
3934.784640  	99.106155 
3936.713456  	99.142374 
3938.642272  	99.212711 
3940.571088  	99.298804 
3942.499904  	99.264748 
3944.428720  	99.212097 
3946.357536  	99.157736 
3948.286352  	99.051833 
3950.215168  	99.067948 
3952.143984  	99.132966 
3954.072800  	99.205932 
3956.001616  	99.238410 
3957.930432  	99.307330 
3959.859248  	99.285843 
3961.788064  	99.158460 
3963.716880  	99.102063 
3965.645696  	99.105211 
3967.574512  	99.028506 
3969.503328  	99.052900 
3971.432144  	99.105955 
3973.360960  	99.106054 
3975.289776  	99.120361 
3977.218592  	99.147488 
3979.147408  	99.155949 
3981.076224  	99.146864 
3983.005040  	99.111176 
3984.933856  	99.087436 
3986.862672  	99.046375 
3988.791488  	99.039934 
3990.720304  	99.055876 
3992.649120  	99.110772 
3994.577936  	99.141263 
3996.506752  	99.137981 
3998.435568  	99.079032 
4000.364384  	99.048782 