##TITLE=EP142
##DATA TYPE=INFRARED SPECTRUM
##XUNITS=1/CM
##YUNITS=%T
399.264912  	97.486425 
401.193728  	104.781738 
403.122544  	102.335725 
405.051360  	102.553257 
406.980176  	103.686618 
408.908992  	104.863187 
410.837808  	101.596195 
412.766624  	102.511881 
414.695440  	104.141611 
416.624256  	98.149253 
418.553072  	93.384156 
420.481888  	101.919706 
422.410704  	104.142486 
424.339520  	103.986425 
426.268336  	105.236746 
428.197152  	106.386851 
430.125968  	108.466304 
432.054784  	108.207462 
433.983600  	105.165151 
435.912416  	105.353918 
437.841232  	106.783285 
439.770048  	106.133140 
441.698864  	104.904713 
443.627680  	105.539333 
445.556496  	105.345758 
447.485312  	105.590891 
449.414128  	106.738667 
451.342944  	106.278289 
453.271760  	105.604985 
455.200576  	104.854938 
457.129392  	103.279088 
459.058208  	103.417362 
460.987024  	103.784738 
462.915840  	104.213642 
464.844656  	105.085733 
466.773472  	103.753586 
468.702288  	102.341068 
470.631104  	101.561445 
472.559920  	100.102889 
474.488736  	100.096442 
476.417552  	100.460585 
478.346368  	100.046616 
480.275184  	98.633734 
482.204000  	96.468936 
484.132816  	93.753001 
486.061632  	92.055692 
487.990448  	90.369983 
489.919264  	87.537058 
491.848080  	84.434631 
493.776896  	82.536512 
495.705712  	81.562000 
497.634528  	80.413743 
499.563344  	79.171387 
501.492160  	78.376527 
503.420976  	79.649372 
505.349792  	81.167485 
507.278608  	83.035803 
509.207424  	84.857019 
511.136240  	86.373119 
513.065056  	87.627615 
514.993872  	88.232606 
516.922688  	88.599933 
518.851504  	89.667633 
520.780320  	91.261516 
522.709136  	92.561322 
524.637952  	93.068981 
526.566768  	93.873191 
528.495584  	95.070985 
530.424400  	96.684085 
532.353216  	98.910950 
534.282032  	100.587474 
536.210848  	101.326951 
538.139664  	102.198891 
540.068480  	103.462212 
541.997296  	104.573205 
543.926112  	105.202705 
545.854928  	105.397889 
547.783744  	105.817562 
549.712560  	106.284859 
551.641376  	106.648349 
553.570192  	106.875145 
555.499008  	106.814824 
557.427824  	106.781398 
559.356640  	106.654980 
561.285456  	106.926645 
563.214272  	107.002281 
565.143088  	106.739690 
567.071904  	106.776875 
569.000720  	106.899505 
570.929536  	106.602322 
572.858352  	106.548948 
574.787168  	106.181593 
576.715984  	106.192312 
578.644800  	106.452663 
580.573616  	105.827128 
582.502432  	105.627979 
584.431248  	105.360699 
586.360064  	104.897693 
588.288880  	104.316739 
590.217696  	103.308601 
592.146512  	102.048572 
594.075328  	101.241346 
596.004144  	100.367809 
597.932960  	98.813874 
599.861776  	96.911749 
601.790592  	95.295312 
603.719408  	93.690968 
605.648224  	92.443811 
607.577040  	92.568125 
609.505856  	94.453548 
611.434672  	97.292962 
613.363488  	99.848111 
615.292304  	101.539718 
617.221120  	102.958321 
619.149936  	104.214813 
621.078752  	105.237870 
623.007568  	105.312373 
624.936384  	105.268275 
626.865200  	105.235250 
628.794016  	105.246113 
630.722832  	105.159200 
632.651648  	104.945417 
634.580464  	104.706796 
636.509280  	104.566757 
638.438096  	104.361059 
640.366912  	104.073241 
642.295728  	103.795405 
644.224544  	103.482936 
646.153360  	103.182847 
648.082176  	102.790487 
650.010992  	102.412908 
651.939808  	102.096385 
653.868624  	101.771684 
655.797440  	101.418064 
657.726256  	100.921598 
659.655072  	100.465736 
661.583888  	100.029789 
663.512704  	99.639630 
665.441520  	99.124441 
667.370336  	98.193079 
669.299152  	97.075256 
671.227968  	96.743343 
673.156784  	96.074213 
675.085600  	95.157353 
677.014416  	94.175689 
678.943232  	93.173430 
680.872048  	92.228618 
682.800864  	91.184487 
684.729680  	89.952538 
686.658496  	88.848105 
688.587312  	87.857891 
690.516128  	87.034451 
692.444944  	86.411030 
694.373760  	86.163503 
696.302576  	86.538329 
698.231392  	87.934452 
700.160208  	90.300501 
702.089024  	93.253580 
704.017840  	96.333768 
705.946656  	99.358263 
707.875472  	101.996714 
709.804288  	103.855741 
711.733104  	104.915787 
713.661920  	105.766808 
715.590736  	106.274297 
717.519552  	106.446183 
719.448368  	106.543426 
721.377184  	106.730183 
723.306000  	106.969624 
725.234816  	107.095421 
727.163632  	107.077529 
729.092448  	106.940856 
731.021264  	106.821288 
732.950080  	106.691223 
734.878896  	106.527129 
736.807712  	106.374056 
738.736528  	106.401791 
740.665344  	106.376336 
742.594160  	106.296548 
744.522976  	106.276879 
746.451792  	106.261310 
748.380608  	106.196898 
750.309424  	106.062960 
752.238240  	105.897012 
754.167056  	105.940011 
756.095872  	105.935340 
758.024688  	105.748621 
759.953504  	105.653236 
761.882320  	105.595052 
763.811136  	105.385123 
765.739952  	105.375745 
767.668768  	105.388170 
769.597584  	105.300200 
771.526400  	105.222570 
773.455216  	105.133942 
775.384032  	104.988733 
777.312848  	104.871035 
779.241664  	104.747323 
781.170480  	104.716351 
783.099296  	104.543571 
785.028112  	104.479286 
786.956928  	104.429459 
788.885744  	104.477406 
790.814560  	104.504303 
792.743376  	104.352250 
794.672192  	104.139548 
796.601008  	104.064986 
798.529824  	103.996214 
800.458640  	103.908024 
802.387456  	103.825857 
804.316272  	103.772737 
806.245088  	103.690940 
808.173904  	103.604439 
810.102720  	103.474512 
812.031536  	103.341242 
813.960352  	103.197949 
815.889168  	103.151537 
817.817984  	103.068598 
819.746800  	102.900135 
821.675616  	102.757708 
823.604432  	102.695478 
825.533248  	102.548567 
827.462064  	102.465669 
829.390880  	102.328013 
831.319696  	102.154418 
833.248512  	101.976400 
835.177328  	101.928087 
837.106144  	101.903114 
839.034960  	101.745185 
840.963776  	101.507954 
842.892592  	101.383957 
844.821408  	101.311536 
846.750224  	101.213865 
848.679040  	101.015515 
850.607856  	100.774982 
852.536672  	100.552814 
854.465488  	100.398205 
856.394304  	100.079058 
858.323120  	99.727589 
860.251936  	99.453918 
862.180752  	99.231424 
864.109568  	98.997804 
866.038384  	98.642565 
867.967200  	98.171083 
869.896016  	97.769675 
871.824832  	97.310311 
873.753648  	96.810868 
875.682464  	96.195176 
877.611280  	95.293961 
879.540096  	94.160107 
881.468912  	92.807012 
883.397728  	91.006332 
885.326544  	88.725970 
887.255360  	85.831308 
889.184176  	82.302845 
891.112992  	79.261689 
893.041808  	79.281027 
894.970624  	82.840976 
896.899440  	87.148713 
898.828256  	89.113740 
900.757072  	88.624977 
902.685888  	86.920045 
904.614704  	84.848233 
906.543520  	82.980205 
908.472336  	82.107845 
910.401152  	83.081180 
912.329968  	86.177734 
914.258784  	90.514408 
916.187600  	94.660341 
918.116416  	97.788210 
920.045232  	99.911971 
921.974048  	101.238675 
923.902864  	101.983675 
925.831680  	102.425548 
927.760496  	102.716354 
929.689312  	102.866005 
931.618128  	102.927665 
933.546944  	102.956584 
935.475760  	102.968190 
937.404576  	102.930132 
939.333392  	102.864755 
941.262208  	102.780264 
943.191024  	102.659732 
945.119840  	102.558002 
947.048656  	102.477702 
948.977472  	102.392654 
950.906288  	102.342191 
952.835104  	102.267767 
954.763920  	102.136328 
956.692736  	101.981932 
958.621552  	101.911418 
960.550368  	101.869299 
962.479184  	101.748902 
964.408000  	101.635401 
966.336816  	101.558124 
968.265632  	101.477636 
970.194448  	101.416522 
972.123264  	101.355461 
974.052080  	101.267868 
975.980896  	101.192169 
977.909712  	101.151482 
979.838528  	101.062965 
981.767344  	100.993408 
983.696160  	100.885103 
985.624976  	100.769028 
987.553792  	100.720578 
989.482608  	100.642085 
991.411424  	100.536178 
993.340240  	100.468837 
995.269056  	100.378414 
997.197872  	100.328945 
999.126688  	100.227270 
1001.055504  	100.141020 
1002.984320  	100.039976 
1004.913136  	99.906238 
1006.841952  	99.802909 
1008.770768  	99.689326 
1010.699584  	99.575081 
1012.628400  	99.510425 
1014.557216  	99.335260 
1016.486032  	99.124465 
1018.414848  	98.885590 
1020.343664  	98.636626 
1022.272480  	98.306132 
1024.201296  	97.849146 
1026.130112  	97.207496 
1028.058928  	96.285280 
1029.987744  	95.073456 
1031.916560  	93.989830 
1033.845376  	93.760438 
1035.774192  	94.728573 
1037.703008  	96.261807 
1039.631824  	97.547341 
1041.560640  	98.259014 
1043.489456  	98.650867 
1045.418272  	98.895053 
1047.347088  	99.024659 
1049.275904  	98.990505 
1051.204720  	98.943358 
1053.133536  	98.939878 
1055.062352  	98.924058 
1056.991168  	98.834646 
1058.919984  	98.745446 
1060.848800  	98.657196 
1062.777616  	98.589237 
1064.706432  	98.530370 
1066.635248  	98.472603 
1068.564064  	98.326761 
1070.492880  	98.165311 
1072.421696  	98.058571 
1074.350512  	97.974311 
1076.279328  	97.823782 
1078.208144  	97.631742 
1080.136960  	97.411657 
1082.065776  	97.189229 
1083.994592  	96.970643 
1085.923408  	96.751291 
1087.852224  	96.438581 
1089.781040  	96.104867 
1091.709856  	95.747342 
1093.638672  	95.357217 
1095.567488  	94.931646 
1097.496304  	94.451838 
1099.425120  	93.921911 
1101.353936  	93.309739 
1103.282752  	92.631170 
1105.211568  	91.938877 
1107.140384  	91.200089 
1109.069200  	90.631156 
1110.998016  	90.467851 
1112.926832  	90.855455 
1114.855648  	91.821615 
1116.784464  	93.170624 
1118.713280  	94.384969 
1120.642096  	95.127576 
1122.570912  	95.410844 
1124.499728  	95.267723 
1126.428544  	94.753012 
1128.357360  	94.022289 
1130.286176  	93.337228 
1132.214992  	93.081782 
1134.143808  	93.379224 
1136.072624  	94.136114 
1138.001440  	95.135536 
1139.930256  	96.076729 
1141.859072  	96.769283 
1143.787888  	97.211009 
1145.716704  	97.436872 
1147.645520  	97.530618 
1149.574336  	97.545124 
1151.503152  	97.549821 
1153.431968  	97.459706 
1155.360784  	97.376163 
1157.289600  	97.264230 
1159.218416  	97.172990 
1161.147232  	97.070487 
1163.076048  	96.931595 
1165.004864  	96.818341 
1166.933680  	96.747315 
1168.862496  	96.643206 
1170.791312  	96.544903 
1172.720128  	96.410219 
1174.648944  	96.279231 
1176.577760  	96.203858 
1178.506576  	96.112092 
1180.435392  	95.980206 
1182.364208  	95.910468 
1184.293024  	95.773788 
1186.221840  	95.613041 
1188.150656  	95.503871 
1190.079472  	95.420959 
1192.008288  	95.254762 
1193.937104  	95.140084 
1195.865920  	95.008085 
1197.794736  	94.909328 
1199.723552  	94.829928 
1201.652368  	94.742676 
1203.581184  	94.659232 
1205.510000  	94.593039 
1207.438816  	94.525139 
1209.367632  	94.452348 
1211.296448  	94.349857 
1213.225264  	94.285572 
1215.154080  	94.225860 
1217.082896  	94.112450 
1219.011712  	93.990325 
1220.940528  	93.894436 
1222.869344  	93.783954 
1224.798160  	93.655569 
1226.726976  	93.546815 
1228.655792  	93.443667 
1230.584608  	93.308352 
1232.513424  	93.230375 
1234.442240  	93.121990 
1236.371056  	92.994071 
1238.299872  	92.874720 
1240.228688  	92.794821 
1242.157504  	92.658665 
1244.086320  	92.522083 
1246.015136  	92.469817 
1247.943952  	92.427890 
1249.872768  	92.313073 
1251.801584  	92.202576 
1253.730400  	92.073048 
1255.659216  	91.963340 
1257.588032  	91.823515 
1259.516848  	91.584237 
1261.445664  	91.427860 
1263.374480  	91.334928 
1265.303296  	91.128990 
1267.232112  	90.891947 
1269.160928  	90.628429 
1271.089744  	90.412821 
1273.018560  	90.294779 
1274.947376  	90.168765 
1276.876192  	89.945726 
1278.805008  	89.714548 
1280.733824  	89.461527 
1282.662640  	89.243236 
1284.591456  	88.952680 
1286.520272  	88.556874 
1288.449088  	88.212413 
1290.377904  	87.995466 
1292.306720  	87.693016 
1294.235536  	87.315716 
1296.164352  	86.870201 
1298.093168  	86.526022 
1300.021984  	86.124675 
1301.950800  	85.590186 
1303.879616  	84.973792 
1305.808432  	84.325141 
1307.737248  	83.606194 
1309.666064  	82.989149 
1311.594880  	82.430143 
1313.523696  	82.154393 
1315.452512  	82.173141 
1317.381328  	82.191601 
1319.310144  	82.201498 
1321.238960  	82.028962 
1323.167776  	80.152255 
1325.096592  	80.185450 
1327.025408  	79.001765 
1328.954224  	77.455396 
1330.883040  	76.269036 
1332.811856  	76.450382 
1334.740672  	78.156366 
1336.669488  	80.775669 
1338.598304  	83.736080 
1340.527120  	87.190086 
1342.455936  	89.501798 
1344.384752  	90.521159 
1346.313568  	90.797944 
1348.242384  	90.102076 
1350.171200  	89.624045 
1352.100016  	89.670636 
1354.028832  	88.881344 
1355.957648  	88.404925 
1357.886464  	88.334382 
1359.815280  	87.730634 
1361.744096  	86.915246 
1363.672912  	86.551764 
1365.601728  	86.218228 
1367.530544  	85.519605 
1369.459360  	84.791468 
1371.388176  	84.093695 
1373.316992  	83.190984 
1375.245808  	82.539842 
1377.174624  	81.959206 
1379.103440  	81.375565 
1381.032256  	81.300272 
1382.961072  	80.877752 
1384.889888  	80.242514 
1386.818704  	79.702967 
1388.747520  	79.503177 
1390.676336  	79.111904 
1392.605152  	78.622686 
1394.533968  	78.105721 
1396.462784  	77.675348 
1398.391600  	77.448889 
1400.320416  	77.429381 
1402.249232  	76.962225 
1404.178048  	76.542794 
1406.106864  	76.384404 
1408.035680  	76.238769 
1409.964496  	76.373547 
1411.893312  	77.065772 
1413.822128  	78.095384 
1415.750944  	79.123434 
1417.679760  	80.702225 
1419.608576  	84.137198 
1421.537392  	86.055794 
1423.466208  	87.573180 
1425.395024  	89.038913 
1427.323840  	90.071358 
1429.252656  	90.724797 
1431.181472  	91.094938 
1433.110288  	90.949059 
1435.039104  	90.591294 
1436.967920  	89.887044 
1438.896736  	88.461894 
1440.825552  	86.637667 
1442.754368  	85.242439 
1444.683184  	85.329490 
1446.612000  	86.942283 
1448.540816  	88.576433 
1450.469632  	88.877928 
1452.398448  	88.568105 
1454.327264  	88.010984 
1456.256080  	87.204801 
1458.184896  	87.125998 
1460.113712  	87.363427 
1462.042528  	87.200639 
1463.971344  	86.920582 
1465.900160  	86.507838 
1467.828976  	85.906976 
1469.757792  	85.197676 
1471.686608  	84.235447 
1473.615424  	83.515198 
1475.544240  	83.043434 
1477.473056  	82.582152 
1479.401872  	81.744348 
1481.330688  	80.988773 
1483.259504  	80.424277 
1485.188320  	79.394686 
1487.117136  	78.131166 
1489.045952  	76.949925 
1490.974768  	76.697450 
1492.903584  	75.949277 
1494.832400  	75.066779 
1496.761216  	74.622444 
1498.690032  	74.499332 
1500.618848  	74.333464 
1502.547664  	74.183017 
1504.476480  	74.240015 
1506.405296  	74.626699 
1508.334112  	76.417154 
1510.262928  	76.711715 
1512.191744  	77.369159 
1514.120560  	77.462878 
1516.049376  	77.610154 
1517.978192  	78.514060 
1519.907008  	78.647489 
1521.835824  	79.590485 
1523.764640  	79.998697 
1525.693456  	80.207431 
1527.622272  	81.100147 
1529.551088  	81.736163 
1531.479904  	82.098670 
1533.408720  	82.903745 
1535.337536  	83.632759 
1537.266352  	84.060784 
1539.195168  	84.714719 
1541.123984  	85.530370 
1543.052800  	85.809491 
1544.981616  	86.513433 
1546.910432  	87.087062 
1548.839248  	86.880775 
1550.768064  	86.639841 
1552.696880  	86.399620 
1554.625696  	85.867719 
1556.554512  	85.524348 
1558.483328  	85.092314 
1560.412144  	85.307707 
1562.340960  	84.208234 
1564.269776  	83.639335 
1566.198592  	83.092012 
1568.127408  	82.615230 
1570.056224  	82.508845 
1571.985040  	81.995982 
1573.913856  	81.422140 
1575.842672  	81.568754 
1577.771488  	81.651543 
1579.700304  	81.395623 
1581.629120  	81.383196 
1583.557936  	81.589155 
1585.486752  	81.987140 
1587.415568  	82.509730 
1589.344384  	82.925378 
1591.273200  	83.339641 
1593.202016  	83.697248 
1595.130832  	84.047191 
1597.059648  	84.445013 
1598.988464  	84.763704 
1600.917280  	84.776097 
1602.846096  	84.725554 
1604.774912  	84.747253 
1606.703728  	84.573397 
1608.632544  	84.528544 
1610.561360  	84.758157 
1612.490176  	85.127764 
1614.418992  	85.639375 
1616.347808  	87.192641 
1618.276624  	88.652013 
1620.205440  	89.041953 
1622.134256  	89.840127 
1624.063072  	91.180282 
1625.991888  	91.870475 
1627.920704  	92.781338 
1629.849520  	93.658437 
1631.778336  	94.154555 
1633.707152  	94.767218 
1635.635968  	95.414609 
1637.564784  	95.961597 
1639.493600  	96.398964 
1641.422416  	96.871296 
1643.351232  	97.388260 
1645.280048  	97.812123 
1647.208864  	98.275932 
1649.137680  	98.861520 
1651.066496  	99.455228 
1652.995312  	99.903979 
1654.924128  	100.229057 
1656.852944  	100.379553 
1658.781760  	100.774756 
1660.710576  	100.865226 
1662.639392  	101.011516 
1664.568208  	101.158782 
1666.497024  	101.239726 
1668.425840  	101.250640 
1670.354656  	101.256520 
1672.283472  	101.321284 
1674.212288  	101.503050 
1676.141104  	101.578318 
1678.069920  	101.431938 
1679.998736  	101.249394 
1681.927552  	101.416243 
1683.856368  	101.567865 
1685.785184  	101.662260 
1687.714000  	101.377533 
1689.642816  	101.474023 
1691.571632  	101.666694 
1693.500448  	101.785257 
1695.429264  	101.701115 
1697.358080  	101.476684 
1699.286896  	101.763864 
1701.215712  	101.916950 
1703.144528  	101.583573 
1705.073344  	101.586046 
1707.002160  	101.708046 
1708.930976  	101.783481 
1710.859792  	101.803529 
1712.788608  	101.831751 
1714.717424  	101.608068 
1716.646240  	101.579504 
1718.575056  	101.950440 
1720.503872  	101.983585 
1722.432688  	101.892466 
1724.361504  	101.996835 
1726.290320  	102.096865 
1728.219136  	102.040907 
1730.147952  	101.820455 
1732.076768  	101.826388 
1734.005584  	101.868119 
1735.934400  	102.025317 
1737.863216  	101.955599 
1739.792032  	102.007696 
1741.720848  	101.855890 
1743.649664  	101.669685 
1745.578480  	101.677027 
1747.507296  	101.619097 
1749.436112  	101.582453 
1751.364928  	101.800977 
1753.293744  	101.961989 
1755.222560  	101.972427 
1757.151376  	101.868744 
1759.080192  	101.885751 
1761.009008  	101.934211 
1762.937824  	102.041675 
1764.866640  	102.059988 
1766.795456  	101.999680 
1768.724272  	101.904777 
1770.653088  	101.909928 
1772.581904  	101.866862 
1774.510720  	101.877754 
1776.439536  	101.864913 
1778.368352  	101.853577 
1780.297168  	101.726477 
1782.225984  	101.762294 
1784.154800  	101.774229 
1786.083616  	101.811174 
1788.012432  	101.816470 
1789.941248  	101.722757 
1791.870064  	101.622614 
1793.798880  	101.657316 
1795.727696  	101.544408 
1797.656512  	101.609434 
1799.585328  	101.578669 
1801.514144  	101.489663 
1803.442960  	101.608193 
1805.371776  	101.705023 
1807.300592  	101.644088 
1809.229408  	101.585272 
1811.158224  	101.518990 
1813.087040  	101.596099 
1815.015856  	101.647704 
1816.944672  	101.601744 
1818.873488  	101.631275 
1820.802304  	101.681300 
1822.731120  	101.621805 
1824.659936  	101.552859 
1826.588752  	101.499387 
1828.517568  	101.445028 
1830.446384  	101.422780 
1832.375200  	101.473291 
1834.304016  	101.443302 
1836.232832  	101.455871 
1838.161648  	101.497702 
1840.090464  	101.538240 
1842.019280  	101.475810 
1843.948096  	101.492121 
1845.876912  	101.467514 
1847.805728  	101.516187 
1849.734544  	101.654820 
1851.663360  	101.765090 
1853.592176  	101.761406 
1855.520992  	101.753162 
1857.449808  	101.722255 
1859.378624  	101.800919 
1861.307440  	101.765564 
1863.236256  	101.739571 
1865.165072  	101.652975 
1867.093888  	101.424267 
1869.022704  	101.279615 
1870.951520  	101.559674 
1872.880336  	101.721418 
1874.809152  	101.891386 
1876.737968  	101.783801 
1878.666784  	101.647248 
1880.595600  	101.580050 
1882.524416  	101.675463 
1884.453232  	101.631983 
1886.382048  	101.603522 
1888.310864  	101.487107 
1890.239680  	101.514698 
1892.168496  	101.625510 
1894.097312  	101.645947 
1896.026128  	101.605855 
1897.954944  	101.643373 
1899.883760  	101.624471 
1901.812576  	101.600666 
1903.741392  	101.558975 
1905.670208  	101.523024 
1907.599024  	101.444828 
1909.527840  	101.431844 
1911.456656  	101.473947 
1913.385472  	101.587977 
1915.314288  	101.391507 
1917.243104  	101.129891 
1919.171920  	100.978100 
1921.100736  	100.768137 
1923.029552  	100.759852 
1924.958368  	100.973927 
1926.887184  	101.104697 
1928.816000  	101.265675 
1930.744816  	101.256083 
1932.673632  	101.255177 
1934.602448  	101.172479 
1936.531264  	101.252485 
1938.460080  	101.188129 
1940.388896  	101.160537 
1942.317712  	101.079577 
1944.246528  	100.972874 
1946.175344  	101.045710 
1948.104160  	101.428192 
1950.032976  	101.294080 
1951.961792  	101.263848 
1953.890608  	101.301728 
1955.819424  	101.449887 
1957.748240  	101.350403 
1959.677056  	101.203321 
1961.605872  	101.142268 
1963.534688  	101.256483 
1965.463504  	101.039082 
1967.392320  	100.786995 
1969.321136  	100.942245 
1971.249952  	101.258073 
1973.178768  	101.267063 
1975.107584  	101.300841 
1977.036400  	101.247189 
1978.965216  	101.102476 
1980.894032  	100.935568 
1982.822848  	100.877379 
1984.751664  	100.802710 
1986.680480  	100.992663 
1988.609296  	100.659890 
1990.538112  	100.235592 
1992.466928  	99.814740 
1994.395744  	100.342504 
1996.324560  	100.569953 
1998.253376  	100.465153 
2000.182192  	100.146446 
2002.111008  	100.068530 
2004.039824  	100.159629 
2005.968640  	100.568499 
2007.897456  	100.892679 
2009.826272  	101.061152 
2011.755088  	100.455249 
2013.683904  	100.140418 
2015.612720  	100.093807 
2017.541536  	99.741857 
2019.470352  	99.576138 
2021.399168  	99.918443 
2023.327984  	99.464257 
2025.256800  	99.584738 
2027.185616  	99.692692 
2029.114432  	99.679524 
2031.043248  	99.681465 
2032.972064  	99.666293 
2034.900880  	99.330572 
2036.829696  	99.635844 
2038.758512  	99.879788 
2040.687328  	99.553961 
2042.616144  	99.214172 
2044.544960  	99.438915 
2046.473776  	99.400898 
2048.402592  	99.402660 
2050.331408  	99.206973 
2052.260224  	99.292079 
2054.189040  	99.489662 
2056.117856  	99.487817 
2058.046672  	99.192889 
2059.975488  	99.037508 
2061.904304  	98.876512 
2063.833120  	98.585144 
2065.761936  	98.521026 
2067.690752  	98.787500 
2069.619568  	98.841271 
2071.548384  	98.834486 
2073.477200  	98.677349 
2075.406016  	98.617755 
2077.334832  	98.425323 
2079.263648  	98.421170 
2081.192464  	98.321655 
2083.121280  	98.233968 
2085.050096  	98.222733 
2086.978912  	98.164812 
2088.907728  	97.901823 
2090.836544  	97.907655 
2092.765360  	97.968542 
2094.694176  	97.901267 
2096.622992  	97.771090 
2098.551808  	97.790790 
2100.480624  	97.638346 
2102.409440  	97.656781 
2104.338256  	97.600861 
2106.267072  	97.560511 
2108.195888  	97.431029 
2110.124704  	97.433112 
2112.053520  	97.533068 
2113.982336  	97.452845 
2115.911152  	97.328717 
2117.839968  	97.418241 
2119.768784  	97.543499 
2121.697600  	97.518600 
2123.626416  	97.236435 
2125.555232  	97.144789 
2127.484048  	97.145967 
2129.412864  	97.264603 
2131.341680  	97.228473 
2133.270496  	97.245705 
2135.199312  	97.427775 
2137.128128  	97.538663 
2139.056944  	97.743772 
2140.985760  	98.136128 
2142.914576  	98.082324 
2144.843392  	98.192115 
2146.772208  	98.300011 
2148.701024  	98.336511 
2150.629840  	98.385073 
2152.558656  	98.483149 
2154.487472  	98.440766 
2156.416288  	98.861963 
2158.345104  	98.634245 
2160.273920  	98.345394 
2162.202736  	99.117907 
2164.131552  	99.406920 
2166.060368  	98.537182 
2167.989184  	98.520805 
2169.918000  	98.621248 
2171.846816  	98.854115 
2173.775632  	98.811569 
2175.704448  	98.648115 
2177.633264  	98.552371 
2179.562080  	98.761111 
2181.490896  	98.472854 
2183.419712  	98.290753 
2185.348528  	98.440394 
2187.277344  	98.586673 
2189.206160  	98.494263 
2191.134976  	98.499390 
2193.063792  	98.335662 
2194.992608  	97.928671 
2196.921424  	97.981847 
2198.850240  	98.374171 
2200.779056  	98.279991 
2202.707872  	98.129203 
2204.636688  	98.107330 
2206.565504  	98.113245 
2208.494320  	98.069830 
2210.423136  	98.119583 
2212.351952  	98.010995 
2214.280768  	98.010467 
2216.209584  	97.975928 
2218.138400  	98.017091 
2220.067216  	97.926917 
2221.996032  	97.862863 
2223.924848  	98.121412 
2225.853664  	98.140301 
2227.782480  	97.967511 
2229.711296  	97.983204 
2231.640112  	98.008818 
2233.568928  	98.099498 
2235.497744  	98.036376 
2237.426560  	98.069017 
2239.355376  	98.129230 
2241.284192  	98.006814 
2243.213008  	97.902054 
2245.141824  	97.982293 
2247.070640  	97.860049 
2248.999456  	97.799263 
2250.928272  	97.652983 
2252.857088  	97.714801 
2254.785904  	97.682519 
2256.714720  	97.662578 
2258.643536  	97.673359 
2260.572352  	97.702780 
2262.501168  	97.626129 
2264.429984  	97.569042 
2266.358800  	97.505685 
2268.287616  	97.533744 
2270.216432  	97.571064 
2272.145248  	97.505551 
2274.074064  	97.444940 
2276.002880  	97.485799 
2277.931696  	97.442399 
2279.860512  	97.388796 
2281.789328  	97.369490 
2283.718144  	97.329988 
2285.646960  	97.252078 
2287.575776  	97.155175 
2289.504592  	97.062315 
2291.433408  	96.964373 
2293.362224  	96.906783 
2295.291040  	96.859753 
2297.219856  	96.678414 
2299.148672  	96.441121 
2301.077488  	96.235915 
2303.006304  	96.078710 
2304.935120  	95.819746 
2306.863936  	95.681117 
2308.792752  	95.636472 
2310.721568  	95.618380 
2312.650384  	95.565510 
2314.579200  	95.479681 
2316.508016  	95.338456 
2318.436832  	95.252939 
2320.365648  	95.192211 
2322.294464  	95.039759 
2324.223280  	94.855223 
2326.152096  	94.840168 
2328.080912  	94.880668 
2330.009728  	95.088411 
2331.938544  	95.276449 
2333.867360  	95.306338 
2335.796176  	95.305282 
2337.724992  	95.473472 
2339.653808  	95.599006 
2341.582624  	95.432017 
2343.511440  	95.024039 
2345.440256  	94.789394 
2347.369072  	94.421266 
2349.297888  	94.181328 
2351.226704  	94.417388 
2353.155520  	94.811159 
2355.084336  	95.065125 
2357.013152  	95.263441 
2358.941968  	95.320822 
2360.870784  	95.453986 
2362.799600  	95.420536 
2364.728416  	95.389073 
2366.657232  	95.536772 
2368.586048  	95.403277 
2370.514864  	95.198199 
2372.443680  	95.128905 
2374.372496  	95.003443 
2376.301312  	94.809463 
2378.230128  	94.638550 
2380.158944  	94.664815 
2382.087760  	94.883743 
2384.016576  	95.082443 
2385.945392  	95.162291 
2387.874208  	95.196756 
2389.803024  	95.150761 
2391.731840  	95.079869 
2393.660656  	94.938363 
2395.589472  	94.849043 
2397.518288  	94.831706 
2399.447104  	94.803940 
2401.375920  	94.686265 
2403.304736  	94.535258 
2405.233552  	94.421038 
2407.162368  	94.358038 
2409.091184  	94.376801 
2411.020000  	94.387071 
2412.948816  	94.287000 
2414.877632  	94.231272 
2416.806448  	94.139806 
2418.735264  	94.114875 
2420.664080  	94.076727 
2422.592896  	94.054361 
2424.521712  	94.007227 
2426.450528  	93.995527 
2428.379344  	93.926731 
2430.308160  	93.901188 
2432.236976  	93.902512 
2434.165792  	93.947639 
2436.094608  	93.992131 
2438.023424  	93.885119 
2439.952240  	93.782050 
2441.881056  	93.713073 
2443.809872  	93.592484 
2445.738688  	93.541904 
2447.667504  	93.539925 
2449.596320  	93.518978 
2451.525136  	93.525232 
2453.453952  	93.477005 
2455.382768  	93.465602 
2457.311584  	93.465642 
2459.240400  	93.413315 
2461.169216  	93.299197 
2463.098032  	93.172822 
2465.026848  	93.099267 
2466.955664  	93.040390 
2468.884480  	92.896276 
2470.813296  	92.807455 
2472.742112  	92.836751 
2474.670928  	92.776328 
2476.599744  	92.717886 
2478.528560  	92.608132 
2480.457376  	92.566717 
2482.386192  	92.450243 
2484.315008  	92.319116 
2486.243824  	92.283437 
2488.172640  	92.245437 
2490.101456  	92.111377 
2492.030272  	92.047415 
2493.959088  	91.969895 
2495.887904  	91.804344 
2497.816720  	91.636881 
2499.745536  	91.607793 
2501.674352  	91.585798 
2503.603168  	91.490088 
2505.531984  	91.453823 
2507.460800  	91.382786 
2509.389616  	91.239382 
2511.318432  	91.180093 
2513.247248  	91.203166 
2515.176064  	91.252714 
2517.104880  	91.232491 
2519.033696  	91.228157 
2520.962512  	91.160209 
2522.891328  	91.149126 
2524.820144  	91.141096 
2526.748960  	91.103153 
2528.677776  	91.090220 
2530.606592  	91.237088 
2532.535408  	91.427742 
2534.464224  	91.480807 
2536.393040  	91.532218 
2538.321856  	91.597056 
2540.250672  	91.573788 
2542.179488  	91.558895 
2544.108304  	91.593386 
2546.037120  	91.643521 
2547.965936  	91.641565 
2549.894752  	91.608061 
2551.823568  	91.660687 
2553.752384  	91.674464 
2555.681200  	91.612484 
2557.610016  	91.577387 
2559.538832  	91.508481 
2561.467648  	91.498753 
2563.396464  	91.501704 
2565.325280  	91.422758 
2567.254096  	91.390963 
2569.182912  	91.339330 
2571.111728  	91.243864 
2573.040544  	91.108610 
2574.969360  	90.948112 
2576.898176  	90.830674 
2578.826992  	90.694345 
2580.755808  	90.602920 
2582.684624  	90.525092 
2584.613440  	90.477689 
2586.542256  	90.533585 
2588.471072  	90.564803 
2590.399888  	90.526768 
2592.328704  	90.516861 
2594.257520  	90.501502 
2596.186336  	90.428757 
2598.115152  	90.254738 
2600.043968  	90.211651 
2601.972784  	90.277011 
2603.901600  	90.241866 
2605.830416  	90.177045 
2607.759232  	90.186463 
2609.688048  	90.203366 
2611.616864  	90.272388 
2613.545680  	90.332574 
2615.474496  	90.350938 
2617.403312  	90.453716 
2619.332128  	90.521882 
2621.260944  	90.573684 
2623.189760  	90.662152 
2625.118576  	90.740420 
2627.047392  	90.827500 
2628.976208  	90.977516 
2630.905024  	91.135043 
2632.833840  	91.249310 
2634.762656  	91.360045 
2636.691472  	91.490853 
2638.620288  	91.590247 
2640.549104  	91.732625 
2642.477920  	91.838324 
2644.406736  	91.914171 
2646.335552  	92.035123 
2648.264368  	92.150626 
2650.193184  	92.223943 
2652.122000  	92.292085 
2654.050816  	92.357768 
2655.979632  	92.356298 
2657.908448  	92.294626 
2659.837264  	92.315748 
2661.766080  	92.329395 
2663.694896  	92.305236 
2665.623712  	92.274613 
2667.552528  	92.229417 
2669.481344  	92.204101 
2671.410160  	92.118811 
2673.338976  	92.007171 
2675.267792  	91.957522 
2677.196608  	91.911561 
2679.125424  	91.790429 
2681.054240  	91.715293 
2682.983056  	91.652923 
2684.911872  	91.577147 
2686.840688  	91.499200 
2688.769504  	91.425975 
2690.698320  	91.347718 
2692.627136  	91.280071 
2694.555952  	91.258685 
2696.484768  	91.259781 
2698.413584  	91.276664 
2700.342400  	91.302267 
2702.271216  	91.239047 
2704.200032  	91.191783 
2706.128848  	91.223356 
2708.057664  	91.239698 
2709.986480  	91.234388 
2711.915296  	91.260800 
2713.844112  	91.300755 
2715.772928  	91.339077 
2717.701744  	91.370579 
2719.630560  	91.404742 
2721.559376  	91.486925 
2723.488192  	91.553892 
2725.417008  	91.609090 
2727.345824  	91.688990 
2729.274640  	91.708737 
2731.203456  	91.756290 
2733.132272  	91.794926 
2735.061088  	91.790833 
2736.989904  	91.791928 
2738.918720  	91.803864 
2740.847536  	91.821678 
2742.776352  	91.824734 
2744.705168  	91.816452 
2746.633984  	91.775674 
2748.562800  	91.710352 
2750.491616  	91.627924 
2752.420432  	91.584290 
2754.349248  	91.557685 
2756.278064  	91.534178 
2758.206880  	91.535399 
2760.135696  	91.540189 
2762.064512  	91.492835 
2763.993328  	91.479017 
2765.922144  	91.512170 
2767.850960  	91.536074 
2769.779776  	91.534820 
2771.708592  	91.543138 
2773.637408  	91.547197 
2775.566224  	91.501517 
2777.495040  	91.439099 
2779.423856  	91.368957 
2781.352672  	91.345824 
2783.281488  	91.295961 
2785.210304  	91.237552 
2787.139120  	91.174401 
2789.067936  	91.123748 
2790.996752  	91.074500 
2792.925568  	91.028543 
2794.854384  	91.045114 
2796.783200  	91.029935 
2798.712016  	90.940243 
2800.640832  	90.885848 
2802.569648  	90.838380 
2804.498464  	90.788014 
2806.427280  	90.759539 
2808.356096  	90.720049 
2810.284912  	90.622453 
2812.213728  	90.527332 
2814.142544  	90.457106 
2816.071360  	90.392687 
2818.000176  	90.389389 
2819.928992  	90.419086 
2821.857808  	90.435811 
2823.786624  	90.468690 
2825.715440  	90.469495 
2827.644256  	90.541922 
2829.573072  	90.644285 
2831.501888  	90.740151 
2833.430704  	90.859991 
2835.359520  	90.936577 
2837.288336  	91.000124 
2839.217152  	91.103474 
2841.145968  	91.252124 
2843.074784  	91.403090 
2845.003600  	91.529488 
2846.932416  	91.689199 
2848.861232  	91.806346 
2850.790048  	91.829347 
2852.718864  	91.810969 
2854.647680  	91.723760 
2856.576496  	91.595950 
2858.505312  	91.472397 
2860.434128  	91.418464 
2862.362944  	91.360032 
2864.291760  	91.324704 
2866.220576  	91.356486 
2868.149392  	91.330667 
2870.078208  	91.290356 
2872.007024  	91.303609 
2873.935840  	91.265860 
2875.864656  	91.198093 
2877.793472  	91.179679 
2879.722288  	91.150670 
2881.651104  	91.145784 
2883.579920  	91.166231 
2885.508736  	91.156770 
2887.437552  	91.115997 
2889.366368  	91.111350 
2891.295184  	91.130201 
2893.224000  	91.218273 
2895.152816  	91.313391 
2897.081632  	91.366963 
2899.010448  	91.480400 
2900.939264  	91.589500 
2902.868080  	91.654275 
2904.796896  	91.734501 
2906.725712  	91.833782 
2908.654528  	92.022085 
2910.583344  	92.206136 
2912.512160  	92.419136 
2914.440976  	92.673280 
2916.369792  	92.879635 
2918.298608  	92.976673 
2920.227424  	93.054591 
2922.156240  	93.124433 
2924.085056  	93.176468 
2926.013872  	93.200949 
2927.942688  	93.153278 
2929.871504  	93.152135 
2931.800320  	93.167480 
2933.729136  	93.134952 
2935.657952  	93.101921 
2937.586768  	93.034069 
2939.515584  	92.999624 
2941.444400  	92.935229 
2943.373216  	92.893229 
2945.302032  	92.896908 
2947.230848  	92.892426 
2949.159664  	92.836867 
2951.088480  	92.802153 
2953.017296  	92.760191 
2954.946112  	92.766886 
2956.874928  	92.846053 
2958.803744  	92.803376 
2960.732560  	92.686409 
2962.661376  	92.643590 
2964.590192  	92.574771 
2966.519008  	92.392453 
2968.447824  	92.266059 
2970.376640  	92.207134 
2972.305456  	92.206930 
2974.234272  	92.379587 
2976.163088  	92.629036 
2978.091904  	92.870240 
2980.020720  	93.087308 
2981.949536  	93.184813 
2983.878352  	93.233787 
2985.807168  	93.269289 
2987.735984  	93.318027 
2989.664800  	93.386512 
2991.593616  	93.446390 
2993.522432  	93.445775 
2995.451248  	93.401455 
2997.380064  	93.352669 
2999.308880  	93.228897 
3001.237696  	93.082865 
3003.166512  	92.843741 
3005.095328  	92.474389 
3007.024144  	92.306568 
3008.952960  	92.682855 
3010.881776  	93.295817 
3012.810592  	93.761072 
3014.739408  	94.026295 
3016.668224  	94.216033 
3018.597040  	94.307365 
3020.525856  	94.303426 
3022.454672  	94.286467 
3024.383488  	94.284229 
3026.312304  	94.351612 
3028.241120  	94.398390 
3030.169936  	94.351036 
3032.098752  	94.303374 
3034.027568  	94.353647 
3035.956384  	94.452179 
3037.885200  	94.475429 
3039.814016  	94.430992 
3041.742832  	94.443263 
3043.671648  	94.523001 
3045.600464  	94.511799 
3047.529280  	94.439995 
3049.458096  	94.486965 
3051.386912  	94.555467 
3053.315728  	94.581392 
3055.244544  	94.636378 
3057.173360  	94.773100 
3059.102176  	94.786592 
3061.030992  	94.789056 
3062.959808  	94.778167 
3064.888624  	94.754410 
3066.817440  	94.885167 
3068.746256  	95.057787 
3070.675072  	95.153803 
3072.603888  	95.146755 
3074.532704  	95.168315 
3076.461520  	95.171528 
3078.390336  	95.167648 
3080.319152  	95.186679 
3082.247968  	95.164668 
3084.176784  	95.158985 
3086.105600  	95.228311 
3088.034416  	95.318984 
3089.963232  	95.387682 
3091.892048  	95.371553 
3093.820864  	95.328397 
3095.749680  	95.340439 
3097.678496  	95.315429 
3099.607312  	95.234412 
3101.536128  	95.211743 
3103.464944  	95.212572 
3105.393760  	95.163118 
3107.322576  	95.062701 
3109.251392  	94.985363 
3111.180208  	94.912623 
3113.109024  	94.785601 
3115.037840  	94.670823 
3116.966656  	94.625561 
3118.895472  	94.585674 
3120.824288  	94.433452 
3122.753104  	94.301328 
3124.681920  	94.211699 
3126.610736  	94.080004 
3128.539552  	94.011547 
3130.468368  	93.848869 
3132.397184  	93.603522 
3134.326000  	93.468535 
3136.254816  	93.406008 
3138.183632  	93.308337 
3140.112448  	93.205876 
3142.041264  	93.071150 
3143.970080  	92.979772 
3145.898896  	92.931459 
3147.827712  	92.880577 
3149.756528  	92.869926 
3151.685344  	92.924445 
3153.614160  	93.002118 
3155.542976  	93.048016 
3157.471792  	93.098570 
3159.400608  	93.215379 
3161.329424  	93.326358 
3163.258240  	93.430353 
3165.187056  	93.540637 
3167.115872  	93.676785 
3169.044688  	93.836349 
3170.973504  	93.971154 
3172.902320  	94.120090 
3174.831136  	94.365520 
3176.759952  	94.628759 
3178.688768  	94.952737 
3180.617584  	95.326164 
3182.546400  	95.595942 
3184.475216  	95.773232 
3186.404032  	96.070917 
3188.332848  	96.352151 
3190.261664  	96.496705 
3192.190480  	96.646090 
3194.119296  	96.794536 
3196.048112  	96.917051 
3197.976928  	97.065633 
3199.905744  	97.295380 
3201.834560  	97.505355 
3203.763376  	97.622025 
3205.692192  	97.717261 
3207.621008  	97.803600 
3209.549824  	97.838079 
3211.478640  	97.962700 
3213.407456  	98.111732 
3215.336272  	98.177643 
3217.265088  	98.261388 
3219.193904  	98.322763 
3221.122720  	98.449419 
3223.051536  	98.456573 
3224.980352  	98.468437 
3226.909168  	98.525801 
3228.837984  	98.547672 
3230.766800  	98.628615 
3232.695616  	98.695094 
3234.624432  	98.765242 
3236.553248  	98.842719 
3238.482064  	98.904832 
3240.410880  	98.999922 
3242.339696  	98.962114 
3244.268512  	98.970376 
3246.197328  	99.175153 
3248.126144  	99.253548 
3250.054960  	99.125819 
3251.983776  	99.106734 
3253.912592  	99.158311 
3255.841408  	99.246633 
3257.770224  	99.306696 
3259.699040  	99.309613 
3261.627856  	99.326155 
3263.556672  	99.359011 
3265.485488  	99.268589 
3267.414304  	99.224884 
3269.343120  	99.322724 
3271.271936  	99.424482 
3273.200752  	99.404135 
3275.129568  	99.344761 
3277.058384  	99.408948 
3278.987200  	99.481495 
3280.916016  	99.514804 
3282.844832  	99.505625 
3284.773648  	99.487284 
3286.702464  	99.474634 
3288.631280  	99.489101 
3290.560096  	99.515982 
3292.488912  	99.488292 
3294.417728  	99.585784 
3296.346544  	99.594755 
3298.275360  	99.602120 
3300.204176  	99.690835 
3302.132992  	99.691812 
3304.061808  	99.696653 
3305.990624  	99.691772 
3307.919440  	99.607351 
3309.848256  	99.592882 
3311.777072  	99.631017 
3313.705888  	99.746735 
3315.634704  	99.881497 
3317.563520  	99.934209 
3319.492336  	99.917828 
3321.421152  	99.810223 
3323.349968  	99.826839 
3325.278784  	99.902117 
3327.207600  	99.951979 
3329.136416  	99.985750 
3331.065232  	99.926937 
3332.994048  	99.892470 
3334.922864  	99.890510 
3336.851680  	99.897448 
3338.780496  	99.960512 
3340.709312  	99.988016 
3342.638128  	99.958997 
3344.566944  	100.039017 
3346.495760  	100.123782 
3348.424576  	100.146401 
3350.353392  	100.108695 
3352.282208  	100.082726 
3354.211024  	100.001667 
3356.139840  	99.942533 
3358.068656  	99.881259 
3359.997472  	99.835518 
3361.926288  	99.911519 
3363.855104  	100.004532 
3365.783920  	99.905423 
3367.712736  	99.966488 
3369.641552  	100.038116 
3371.570368  	100.041660 
3373.499184  	99.926041 
3375.428000  	99.822495 
3377.356816  	99.866051 
3379.285632  	99.932476 
3381.214448  	99.958618 
3383.143264  	99.873668 
3385.072080  	99.776027 
3387.000896  	99.807272 
3388.929712  	99.835480 
3390.858528  	99.738200 
3392.787344  	99.719632 
3394.716160  	99.840124 
3396.644976  	99.877407 
3398.573792  	99.883305 
3400.502608  	99.841234 
3402.431424  	99.867530 
3404.360240  	99.855608 
3406.289056  	99.796807 
3408.217872  	99.856270 
3410.146688  	99.892102 
3412.075504  	99.898183 
3414.004320  	99.950334 
3415.933136  	99.960983 
3417.861952  	99.820223 
3419.790768  	99.512065 
3421.719584  	99.606306 
3423.648400  	99.847728 
3425.577216  	99.800868 
3427.506032  	99.755587 
3429.434848  	99.820571 
3431.363664  	99.915513 
3433.292480  	100.032412 
3435.221296  	99.926290 
3437.150112  	99.795596 
3439.078928  	99.790764 
3441.007744  	99.651626 
3442.936560  	99.603432 
3444.865376  	99.547148 
3446.794192  	99.303099 
3448.723008  	99.549622 
3450.651824  	99.805094 
3452.580640  	99.848115 
3454.509456  	99.851603 
3456.438272  	99.797347 
3458.367088  	99.739113 
3460.295904  	99.646356 
3462.224720  	99.652707 
3464.153536  	99.637851 
3466.082352  	99.560871 
3468.011168  	99.556057 
3469.939984  	99.541001 
3471.868800  	99.523902 
3473.797616  	99.491686 
3475.726432  	99.668022 
3477.655248  	99.619150 
3479.584064  	99.334070 
3481.512880  	99.168250 
3483.441696  	99.373922 
3485.370512  	99.424379 
3487.299328  	99.267653 
3489.228144  	99.299561 
3491.156960  	99.470937 
3493.085776  	99.331100 
3495.014592  	99.151902 
3496.943408  	99.249093 
3498.872224  	99.261886 
3500.801040  	98.897371 
3502.729856  	98.659449 
3504.658672  	98.984253 
3506.587488  	99.219196 
3508.516304  	98.920074 
3510.445120  	99.018982 
3512.373936  	99.428579 
3514.302752  	99.631745 
3516.231568  	99.481210 
3518.160384  	99.276138 
3520.089200  	99.181639 
3522.018016  	98.724066 
3523.946832  	98.387002 
3525.875648  	98.387914 
3527.804464  	98.443398 
3529.733280  	98.865667 
3531.662096  	99.310423 
3533.590912  	99.302832 
3535.519728  	99.002282 
3537.448544  	99.230775 
3539.377360  	99.391304 
3541.306176  	99.195365 
3543.234992  	98.858225 
3545.163808  	98.565493 
3547.092624  	98.715001 
3549.021440  	98.907548 
3550.950256  	98.874286 
3552.879072  	99.104474 
3554.807888  	99.304420 
3556.736704  	99.205002 
3558.665520  	99.038720 
3560.594336  	98.904575 
3562.523152  	98.802567 
3564.451968  	98.491348 
3566.380784  	98.342954 
3568.309600  	98.941336 
3570.238416  	99.028523 
3572.167232  	98.994455 
3574.096048  	99.027473 
3576.024864  	99.102379 
3577.953680  	98.960170 
3579.882496  	98.780805 
3581.811312  	98.856778 
3583.740128  	98.813871 
3585.668944  	98.420526 
3587.597760  	98.690546 
3589.526576  	99.411146 
3591.455392  	98.918146 
3593.384208  	98.335190 
3595.313024  	98.358628 
3597.241840  	98.423831 
3599.170656  	98.354469 
3601.099472  	98.600998 
3603.028288  	98.811572 
3604.957104  	98.636081 
3606.885920  	98.601889 
3608.814736  	98.889438 
3610.743552  	98.874038 
3612.672368  	98.470883 
3614.601184  	98.618326 
3616.530000  	98.514458 
3618.458816  	98.377022 
3620.387632  	98.886198 
3622.316448  	98.873069 
3624.245264  	98.624558 
3626.174080  	98.534526 
3628.102896  	98.601087 
3630.031712  	99.390999 
3631.960528  	98.767713 
3633.889344  	98.678383 
3635.818160  	98.801006 
3637.746976  	98.704141 
3639.675792  	98.653920 
3641.604608  	98.465558 
3643.533424  	98.494687 
3645.462240  	98.459837 
3647.391056  	98.545532 
3649.319872  	99.338444 
3651.248688  	99.694059 
3653.177504  	99.051261 
3655.106320  	98.785024 
3657.035136  	99.133173 
3658.963952  	98.927691 
3660.892768  	98.829931 
3662.821584  	98.804328 
3664.750400  	98.745396 
3666.679216  	98.777176 
3668.608032  	98.836594 
3670.536848  	99.285765 
3672.465664  	99.005969 
3674.394480  	98.652192 
3676.323296  	99.481464 
3678.252112  	99.050557 
3680.180928  	98.795062 
3682.109744  	98.616274 
3684.038560  	98.541415 
3685.967376  	98.669885 
3687.896192  	98.810488 
3689.825008  	99.095480 
3691.753824  	99.150151 
3693.682640  	98.756448 
3695.611456  	98.463752 
3697.540272  	98.487272 
3699.469088  	98.496224 
3701.397904  	98.671040 
3703.326720  	98.849033 
3705.255536  	98.617851 
3707.184352  	98.645395 
3709.113168  	98.730079 
3711.041984  	99.014527 
3712.970800  	99.260343 
3714.899616  	98.882480 
3716.828432  	98.642381 
3718.757248  	98.568856 
3720.686064  	98.418643 
3722.614880  	98.139365 
3724.543696  	97.935288 
3726.472512  	98.188610 
3728.401328  	98.489496 
3730.330144  	98.469799 
3732.258960  	98.447819 
3734.187776  	97.854445 
3736.116592  	98.241394 
3738.045408  	98.564785 
3739.974224  	98.325033 
3741.903040  	98.507542 
3743.831856  	99.132609 
3745.760672  	99.452404 
3747.689488  	98.686258 
3749.618304  	98.911348 
3751.547120  	99.317410 
3753.475936  	99.174274 
3755.404752  	98.592476 
3757.333568  	98.454170 
3759.262384  	98.800245 
3761.191200  	99.163124 
3763.120016  	98.650050 
3765.048832  	98.546451 
3766.977648  	98.735366 
3768.906464  	98.793900 
3770.835280  	99.154536 
3772.764096  	98.965029 
3774.692912  	98.803796 
3776.621728  	98.726514 
3778.550544  	98.707060 
3780.479360  	98.994413 
3782.408176  	98.566221 
3784.336992  	98.422099 
3786.265808  	98.646010 
3788.194624  	98.730779 
3790.123440  	98.699174 
3792.052256  	98.607380 
3793.981072  	98.531660 
3795.909888  	98.719963 
3797.838704  	99.002224 
3799.767520  	99.102456 
3801.696336  	99.511548 
3803.625152  	99.045035 
3805.553968  	98.521214 
3807.482784  	99.369582 
3809.411600  	99.128518 
3811.340416  	98.642938 
3813.269232  	98.628088 
3815.198048  	98.905295 
3817.126864  	99.052841 
3819.055680  	98.339850 
3820.984496  	98.812679 
3822.913312  	99.112762 
3824.842128  	98.336874 
3826.770944  	98.402354 
3828.699760  	98.599275 
3830.628576  	98.694636 
3832.557392  	98.779708 
3834.486208  	98.637538 
3836.415024  	98.541901 
3838.343840  	98.312098 
3840.272656  	98.193550 
3842.201472  	98.206042 
3844.130288  	98.418264 
3846.059104  	98.376789 
3847.987920  	98.101970 
3849.916736  	97.975115 
3851.845552  	98.120858 
3853.774368  	99.363694 
3855.703184  	98.842628 
3857.632000  	98.156591 
3859.560816  	97.998814 
3861.489632  	97.955765 
3863.418448  	98.033458 
3865.347264  	98.278672 
3867.276080  	98.070726 
3869.204896  	97.882567 
3871.133712  	98.289966 
3873.062528  	98.137153 
3874.991344  	98.490949 
3876.920160  	98.287041 
3878.848976  	97.896087 
3880.777792  	98.016744 
3882.706608  	98.095608 
3884.635424  	98.210250 
3886.564240  	98.683809 
3888.493056  	98.180024 
3890.421872  	97.869849 
3892.350688  	98.211585 
3894.279504  	98.285451 
3896.208320  	98.121663 
3898.137136  	98.016036 
3900.065952  	98.180195 
3901.994768  	98.118731 
3903.923584  	98.099536 
3905.852400  	98.404442 
3907.781216  	98.557754 
3909.710032  	98.552190 
3911.638848  	98.493603 
3913.567664  	98.393438 
3915.496480  	98.185508 
3917.425296  	98.302834 
3919.354112  	98.439656 
3921.282928  	98.281156 
3923.211744  	98.079278 
3925.140560  	98.328634 
3927.069376  	98.400115 
3928.998192  	98.077311 
3930.927008  	97.949394 
3932.855824  	98.136725 
3934.784640  	98.255087 
3936.713456  	98.189266 
3938.642272  	98.208047 
3940.571088  	98.108135 
3942.499904  	98.138248 
3944.428720  	98.272006 
3946.357536  	97.997212 
3948.286352  	97.820451 
3950.215168  	98.046833 
3952.143984  	98.243486 
3954.072800  	98.371276 
3956.001616  	98.366151 
3957.930432  	98.374713 
3959.859248  	98.294549 
3961.788064  	98.283433 
3963.716880  	98.380090 
3965.645696  	98.357401 
3967.574512  	98.221047 
3969.503328  	98.165887 
3971.432144  	98.205103 
3973.360960  	98.192985 
3975.289776  	98.232371 
3977.218592  	98.383248 
3979.147408  	98.475819 
3981.076224  	98.439216 
3983.005040  	98.434671 
3984.933856  	98.448209 
3986.862672  	98.378687 
3988.791488  	98.253357 
3990.720304  	98.284725 
3992.649120  	98.354197 
3994.577936  	98.364551 
3996.506752  	98.441803 
3998.435568  	98.414802 
4000.364384  	98.343897 