##TITLE=EP142
##DATA TYPE=INFRARED SPECTRUM
##XUNITS=1/CM
##YUNITS=%T
399.264912  	83.216555 
401.193728  	87.745565 
403.122544  	90.220192 
405.051360  	91.464650 
406.980176  	87.811308 
408.908992  	87.245553 
410.837808  	80.897182 
412.766624  	76.817953 
414.695440  	74.879597 
416.624256  	72.471495 
418.553072  	75.144356 
420.481888  	76.174571 
422.410704  	75.474972 
424.339520  	78.525374 
426.268336  	77.577082 
428.197152  	76.328973 
430.125968  	77.383880 
432.054784  	78.641960 
433.983600  	78.269578 
435.912416  	76.825481 
437.841232  	74.841516 
439.770048  	73.973445 
441.698864  	74.737288 
443.627680  	74.102987 
445.556496  	72.170797 
447.485312  	72.792571 
449.414128  	74.369972 
451.342944  	74.000671 
453.271760  	73.194557 
455.200576  	72.911213 
457.129392  	71.916713 
459.058208  	71.897847 
460.987024  	71.716611 
462.915840  	71.836075 
464.844656  	72.483101 
466.773472  	71.628821 
468.702288  	70.509585 
470.631104  	69.804831 
472.559920  	68.652778 
474.488736  	68.727561 
476.417552  	69.192026 
478.346368  	69.303151 
480.275184  	69.327613 
482.204000  	69.315284 
484.132816  	69.355939 
486.061632  	69.387049 
487.990448  	69.795852 
489.919264  	69.267160 
491.848080  	68.436105 
493.776896  	68.109660 
495.705712  	68.356280 
497.634528  	69.393632 
499.563344  	70.234340 
501.492160  	70.740685 
503.420976  	72.254527 
505.349792  	73.051476 
507.278608  	73.111893 
509.207424  	73.302686 
511.136240  	73.009739 
513.065056  	72.429351 
514.993872  	71.839337 
516.922688  	71.171536 
518.851504  	70.639911 
520.780320  	70.537857 
522.709136  	70.477650 
524.637952  	69.814866 
526.566768  	68.869741 
528.495584  	68.542386 
530.424400  	68.308344 
532.353216  	68.910581 
534.282032  	69.849487 
536.210848  	70.073208 
538.139664  	70.030146 
540.068480  	70.030055 
541.997296  	70.728935 
543.926112  	71.007097 
545.854928  	70.878993 
547.783744  	70.555983 
549.712560  	70.775824 
551.641376  	71.506861 
553.570192  	72.191418 
555.499008  	72.681602 
557.427824  	73.468206 
559.356640  	74.006176 
561.285456  	74.526710 
563.214272  	74.963823 
565.143088  	75.366004 
567.071904  	75.963079 
569.000720  	76.610950 
570.929536  	76.911302 
572.858352  	76.928191 
574.787168  	76.574902 
576.715984  	76.785617 
578.644800  	77.060643 
580.573616  	76.647156 
582.502432  	76.478992 
584.431248  	76.306623 
586.360064  	76.135750 
588.288880  	76.258906 
590.217696  	75.882940 
592.146512  	75.352395 
594.075328  	75.525724 
596.004144  	75.672910 
597.932960  	75.647141 
599.861776  	75.364617 
601.790592  	75.346212 
603.719408  	75.543682 
605.648224  	75.419065 
607.577040  	75.431763 
609.505856  	75.260458 
611.434672  	75.034353 
613.363488  	74.568792 
615.292304  	74.514407 
617.221120  	75.018207 
619.149936  	75.870444 
621.078752  	76.899692 
623.007568  	78.744463 
624.936384  	80.720273 
626.865200  	81.999181 
628.794016  	82.008243 
630.722832  	80.655033 
632.651648  	79.290779 
634.580464  	77.996612 
636.509280  	76.890397 
638.438096  	77.652268 
640.366912  	78.492649 
642.295728  	78.603625 
644.224544  	78.279622 
646.153360  	77.881702 
648.082176  	77.578337 
650.010992  	77.307557 
651.939808  	77.092480 
653.868624  	76.971072 
655.797440  	76.825671 
657.726256  	76.607592 
659.655072  	76.469228 
661.583888  	76.373386 
663.512704  	76.335941 
665.441520  	76.484998 
667.370336  	76.521905 
669.299152  	76.539139 
671.227968  	76.774616 
673.156784  	76.858871 
675.085600  	76.726541 
677.014416  	76.536424 
678.943232  	76.285234 
680.872048  	76.078144 
682.800864  	75.776294 
684.729680  	74.977401 
686.658496  	74.140622 
688.587312  	73.544202 
690.516128  	72.727850 
692.444944  	71.661576 
694.373760  	69.671649 
696.302576  	66.602189 
698.231392  	62.443269 
700.160208  	57.340033 
702.089024  	54.419666 
704.017840  	56.992813 
705.946656  	63.717869 
707.875472  	70.357872 
709.804288  	73.669251 
711.733104  	72.782490 
713.661920  	70.419785 
715.590736  	72.457187 
717.519552  	77.414713 
719.448368  	80.030934 
721.377184  	80.823988 
723.306000  	81.891204 
725.234816  	82.688317 
727.163632  	83.394829 
729.092448  	83.657853 
731.021264  	83.697460 
732.950080  	83.534218 
734.878896  	83.334764 
736.807712  	83.122322 
738.736528  	82.912178 
740.665344  	82.602008 
742.594160  	82.396994 
744.522976  	82.048567 
746.451792  	81.505799 
748.380608  	80.964558 
750.309424  	80.281648 
752.238240  	79.285356 
754.167056  	78.347357 
756.095872  	77.526579 
758.024688  	76.533809 
759.953504  	75.359504 
761.882320  	74.123959 
763.811136  	72.913417 
765.739952  	71.928872 
767.668768  	70.420903 
769.597584  	67.981785 
771.526400  	64.521692 
773.455216  	59.684353 
775.384032  	55.347752 
777.312848  	55.682958 
779.241664  	61.124252 
781.170480  	66.980893 
783.099296  	69.337482 
785.028112  	68.863711 
786.956928  	69.414088 
788.885744  	74.531977 
790.814560  	80.772644 
792.743376  	84.424118 
794.672192  	85.928471 
796.601008  	86.587556 
798.529824  	87.058802 
800.458640  	87.707264 
802.387456  	88.220536 
804.316272  	88.492535 
806.245088  	88.356396 
808.173904  	88.176898 
810.102720  	87.822054 
812.031536  	87.274825 
813.960352  	86.548224 
815.889168  	85.805600 
817.817984  	84.419435 
819.746800  	81.572682 
821.675616  	75.974592 
823.604432  	70.719638 
825.533248  	71.516843 
827.462064  	75.296921 
829.390880  	76.690258 
831.319696  	73.686403 
833.248512  	70.787691 
835.177328  	73.171863 
837.106144  	77.578220 
839.034960  	80.914789 
840.963776  	82.368490 
842.892592  	82.671816 
844.821408  	81.892641 
846.750224  	79.763183 
848.679040  	77.566653 
850.607856  	77.400116 
852.536672  	78.849153 
854.465488  	80.547223 
856.394304  	81.693408 
858.323120  	82.459096 
860.251936  	83.238974 
862.180752  	83.752881 
864.109568  	83.572548 
866.038384  	83.028566 
867.967200  	82.308493 
869.896016  	81.929557 
871.824832  	82.262510 
873.753648  	83.219946 
875.682464  	84.167472 
877.611280  	84.977224 
879.540096  	85.517119 
881.468912  	85.532533 
883.397728  	85.070909 
885.326544  	84.730031 
887.255360  	84.540062 
889.184176  	84.379769 
891.112992  	84.235382 
893.041808  	84.367103 
894.970624  	84.611300 
896.899440  	84.954584 
898.828256  	85.073947 
900.757072  	85.109717 
902.685888  	85.049961 
904.614704  	84.901758 
906.543520  	84.430835 
908.472336  	83.512458 
910.401152  	82.235602 
912.329968  	81.097545 
914.258784  	80.447731 
916.187600  	80.841789 
918.116416  	82.152608 
920.045232  	83.588948 
921.974048  	84.614768 
923.902864  	85.239192 
925.831680  	85.644799 
927.760496  	86.016312 
929.689312  	86.233417 
931.618128  	86.365107 
933.546944  	86.482096 
935.475760  	86.713609 
937.404576  	87.059345 
939.333392  	87.377762 
941.262208  	87.603429 
943.191024  	87.763269 
945.119840  	87.822545 
947.048656  	87.816570 
948.977472  	87.776975 
950.906288  	87.808359 
952.835104  	87.857668 
954.763920  	87.888944 
956.692736  	87.793100 
958.621552  	87.599128 
960.550368  	87.341221 
962.479184  	87.094955 
964.408000  	86.947186 
966.336816  	86.958745 
968.265632  	87.189477 
970.194448  	87.356006 
972.123264  	87.248121 
974.052080  	86.991651 
975.980896  	86.749554 
977.909712  	86.624435 
979.838528  	86.445670 
981.767344  	86.268723 
983.696160  	86.051892 
985.624976  	85.942018 
987.553792  	85.827969 
989.482608  	85.677128 
991.411424  	85.327417 
993.340240  	85.064493 
995.269056  	84.856587 
997.197872  	84.698477 
999.126688  	84.586291 
1001.055504  	84.474937 
1002.984320  	84.293155 
1004.913136  	84.074510 
1006.841952  	83.783346 
1008.770768  	83.497541 
1010.699584  	83.153482 
1012.628400  	82.786705 
1014.557216  	82.147770 
1016.486032  	81.237469 
1018.414848  	80.406485 
1020.343664  	79.600435 
1022.272480  	78.101774 
1024.201296  	75.597612 
1026.130112  	72.733944 
1028.058928  	71.585285 
1029.987744  	72.635974 
1031.916560  	73.979859 
1033.845376  	74.621847 
1035.774192  	75.311432 
1037.703008  	76.474233 
1039.631824  	78.318632 
1041.560640  	80.619317 
1043.489456  	82.403389 
1045.418272  	83.156202 
1047.347088  	83.299232 
1049.275904  	83.066232 
1051.204720  	82.516650 
1053.133536  	81.651212 
1055.062352  	80.508191 
1056.991168  	79.192811 
1058.919984  	77.867490 
1060.848800  	77.028284 
1062.777616  	77.369197 
1064.706432  	78.247362 
1066.635248  	78.909151 
1068.564064  	79.674232 
1070.492880  	80.875735 
1072.421696  	81.883555 
1074.350512  	82.398453 
1076.279328  	82.495980 
1078.208144  	82.506290 
1080.136960  	82.429219 
1082.065776  	82.271730 
1083.994592  	81.997154 
1085.923408  	81.738415 
1087.852224  	81.322152 
1089.781040  	80.835072 
1091.709856  	80.220308 
1093.638672  	79.560546 
1095.567488  	78.800978 
1097.496304  	78.016179 
1099.425120  	77.169356 
1101.353936  	76.270079 
1103.282752  	75.789258 
1105.211568  	76.410971 
1107.140384  	77.471364 
1109.069200  	78.133199 
1110.998016  	78.560982 
1112.926832  	79.045757 
1114.855648  	79.342957 
1116.784464  	79.224795 
1118.713280  	78.652488 
1120.642096  	77.909976 
1122.570912  	77.348741 
1124.499728  	77.156060 
1126.428544  	77.354400 
1128.357360  	77.750630 
1130.286176  	78.188602 
1132.214992  	78.850439 
1134.143808  	79.470455 
1136.072624  	79.624076 
1138.001440  	79.387794 
1139.930256  	78.956990 
1141.859072  	78.268232 
1143.787888  	77.335524 
1145.716704  	76.535683 
1147.645520  	76.301272 
1149.574336  	76.615403 
1151.503152  	77.183700 
1153.431968  	77.678633 
1155.360784  	78.024656 
1157.289600  	78.154574 
1159.218416  	78.196784 
1161.147232  	78.114490 
1163.076048  	77.852719 
1165.004864  	77.491401 
1166.933680  	77.146322 
1168.862496  	76.851337 
1170.791312  	76.944890 
1172.720128  	77.562307 
1174.648944  	78.821796 
1176.577760  	80.546692 
1178.506576  	82.407992 
1180.435392  	84.031567 
1182.364208  	85.263514 
1184.293024  	85.850344 
1186.221840  	85.846151 
1188.150656  	85.472586 
1190.079472  	84.899386 
1192.008288  	84.042538 
1193.937104  	83.147074 
1195.865920  	82.242916 
1197.794736  	81.385527 
1199.723552  	80.622664 
1201.652368  	79.932716 
1203.581184  	79.226878 
1205.510000  	78.566310 
1207.438816  	77.999415 
1209.367632  	77.558500 
1211.296448  	77.194189 
1213.225264  	76.915905 
1215.154080  	76.633857 
1217.082896  	76.276582 
1219.011712  	75.822921 
1220.940528  	75.313740 
1222.869344  	74.664864 
1224.798160  	73.862537 
1226.726976  	72.989428 
1228.655792  	71.978861 
1230.584608  	70.666919 
1232.513424  	69.056556 
1234.442240  	67.135363 
1236.371056  	64.941807 
1238.299872  	62.908144 
1240.228688  	62.407283 
1242.157504  	64.508767 
1244.086320  	68.087010 
1246.015136  	70.951212 
1247.943952  	72.305529 
1249.872768  	72.545514 
1251.801584  	72.262202 
1253.730400  	71.730563 
1255.659216  	71.107130 
1257.588032  	70.358146 
1259.516848  	69.563994 
1261.445664  	68.820903 
1263.374480  	68.038974 
1265.303296  	67.049158 
1267.232112  	66.025032 
1269.160928  	64.979803 
1271.089744  	64.104745 
1273.018560  	63.372907 
1274.947376  	62.733277 
1276.876192  	62.080685 
1278.805008  	61.457997 
1280.733824  	60.781974 
1282.662640  	60.228560 
1284.591456  	59.744232 
1286.520272  	59.333675 
1288.449088  	59.312734 
1290.377904  	60.174920 
1292.306720  	61.667913 
1294.235536  	63.349992 
1296.164352  	64.814592 
1298.093168  	66.154329 
1300.021984  	67.192080 
1301.950800  	67.301427 
1303.879616  	66.176529 
1305.808432  	65.499747 
1307.737248  	64.008015 
1309.666064  	62.737635 
1311.594880  	61.234564 
1313.523696  	59.692457 
1315.452512  	58.468650 
1317.381328  	57.103849 
1319.310144  	55.411863 
1321.238960  	53.663756 
1323.167776  	52.031096 
1325.096592  	51.002232 
1327.025408  	50.947225 
1328.954224  	52.306684 
1330.883040  	55.407977 
1332.811856  	59.504549 
1334.740672  	62.206053 
1336.669488  	63.064153 
1338.598304  	61.891901 
1340.527120  	60.017778 
1342.455936  	58.114259 
1344.384752  	56.414405 
1346.313568  	54.483965 
1348.242384  	52.776197 
1350.171200  	51.383878 
1352.100016  	50.374563 
1354.028832  	49.802635 
1355.957648  	49.893321 
1357.886464  	50.482368 
1359.815280  	51.159416 
1361.744096  	51.614126 
1363.672912  	51.934144 
1365.601728  	51.645807 
1367.530544  	51.399272 
1369.459360  	51.708462 
1371.388176  	52.070409 
1373.316992  	52.571139 
1375.245808  	53.640214 
1377.174624  	54.493969 
1379.103440  	55.683343 
1381.032256  	57.374094 
1382.961072  	59.297645 
1384.889888  	60.697697 
1386.818704  	62.230048 
1388.747520  	64.103482 
1390.676336  	65.232657 
1392.605152  	65.760089 
1394.533968  	65.886259 
1396.462784  	65.448781 
1398.391600  	64.827943 
1400.320416  	63.937190 
1402.249232  	62.606313 
1404.178048  	61.653034 
1406.106864  	61.324726 
1408.035680  	61.419026 
1409.964496  	61.830760 
1411.893312  	61.589614 
1413.822128  	60.513950 
1415.750944  	58.540783 
1417.679760  	56.722159 
1419.608576  	55.921652 
1421.537392  	55.156376 
1423.466208  	55.478306 
1425.395024  	57.421085 
1427.323840  	59.184822 
1429.252656  	61.844609 
1431.181472  	64.712086 
1433.110288  	66.743718 
1435.039104  	68.551376 
1436.967920  	71.817962 
1438.896736  	73.641966 
1440.825552  	75.246590 
1442.754368  	77.664420 
1444.683184  	79.724695 
1446.612000  	81.740062 
1448.540816  	83.890668 
1450.469632  	84.808725 
1452.398448  	85.218735 
1454.327264  	85.204352 
1456.256080  	85.187472 
1458.184896  	85.783445 
1460.113712  	86.059060 
1462.042528  	85.864420 
1463.971344  	86.060259 
1465.900160  	86.168892 
1467.828976  	86.025957 
1469.757792  	85.850826 
1471.686608  	85.630677 
1473.615424  	85.463154 
1475.544240  	85.467845 
1477.473056  	85.335944 
1479.401872  	84.770293 
1481.330688  	84.246983 
1483.259504  	84.149052 
1485.188320  	83.768727 
1487.117136  	82.859390 
1489.045952  	81.694086 
1490.974768  	82.793982 
1492.903584  	83.583813 
1494.832400  	84.089025 
1496.761216  	84.746794 
1498.690032  	85.196703 
1500.618848  	84.908384 
1502.547664  	84.672017 
1504.476480  	84.899305 
1506.405296  	83.987723 
1508.334112  	83.589487 
1510.262928  	83.721950 
1512.191744  	83.862575 
1514.120560  	83.649039 
1516.049376  	83.263903 
1517.978192  	83.370198 
1519.907008  	83.162233 
1521.835824  	83.260641 
1523.764640  	82.958119 
1525.693456  	82.790255 
1527.622272  	82.751152 
1529.551088  	82.736317 
1531.479904  	81.686514 
1533.408720  	81.303856 
1535.337536  	80.229269 
1537.266352  	79.858494 
1539.195168  	78.780487 
1541.123984  	75.897116 
1543.052800  	73.038980 
1544.981616  	70.210605 
1546.910432  	67.225011 
1548.839248  	63.622343 
1550.768064  	59.940388 
1552.696880  	58.313098 
1554.625696  	58.853856 
1556.554512  	59.740818 
1558.483328  	65.628668 
1560.412144  	75.794538 
1562.340960  	76.223304 
1564.269776  	77.772786 
1566.198592  	79.367224 
1568.127408  	79.730161 
1570.056224  	80.727807 
1571.985040  	80.447668 
1573.913856  	80.260642 
1575.842672  	80.945182 
1577.771488  	81.481983 
1579.700304  	80.724682 
1581.629120  	80.172720 
1583.557936  	79.417649 
1585.486752  	78.712668 
1587.415568  	77.879253 
1589.344384  	76.887949 
1591.273200  	75.809029 
1593.202016  	74.692847 
1595.130832  	73.533353 
1597.059648  	72.380110 
1598.988464  	71.146004 
1600.917280  	69.669202 
1602.846096  	68.144574 
1604.774912  	66.581176 
1606.703728  	64.993885 
1608.632544  	63.560954 
1610.561360  	62.355810 
1612.490176  	60.900434 
1614.418992  	59.572354 
1616.347808  	59.057181 
1618.276624  	58.190679 
1620.205440  	56.985233 
1622.134256  	57.282031 
1624.063072  	59.238764 
1625.991888  	60.292345 
1627.920704  	61.801386 
1629.849520  	62.823539 
1631.778336  	62.543439 
1633.707152  	62.154757 
1635.635968  	60.665914 
1637.564784  	58.270818 
1639.493600  	56.328267 
1641.422416  	55.287516 
1643.351232  	54.729802 
1645.280048  	55.434154 
1647.208864  	59.163436 
1649.137680  	61.923180 
1651.066496  	63.104091 
1652.995312  	67.339758 
1654.924128  	69.340115 
1656.852944  	68.634602 
1658.781760  	68.921230 
1660.710576  	69.576784 
1662.639392  	70.857876 
1664.568208  	72.249247 
1666.497024  	73.374663 
1668.425840  	75.496195 
1670.354656  	78.940711 
1672.283472  	80.524133 
1674.212288  	82.000704 
1676.141104  	83.694916 
1678.069920  	83.771719 
1679.998736  	83.824950 
1681.927552  	84.583485 
1683.856368  	86.046307 
1685.785184  	86.946834 
1687.714000  	86.276768 
1689.642816  	87.176602 
1691.571632  	88.162838 
1693.500448  	88.726537 
1695.429264  	89.302824 
1697.358080  	89.600407 
1699.286896  	90.361377 
1701.215712  	91.267574 
1703.144528  	90.911347 
1705.073344  	91.358371 
1707.002160  	91.996908 
1708.930976  	92.513402 
1710.859792  	92.982827 
1712.788608  	93.468799 
1714.717424  	93.680188 
1716.646240  	94.211667 
1718.575056  	95.067186 
1720.503872  	95.372901 
1722.432688  	95.566709 
1724.361504  	96.046374 
1726.290320  	96.496295 
1728.219136  	96.600348 
1730.147952  	96.525677 
1732.076768  	96.785583 
1734.005584  	97.033292 
1735.934400  	97.257972 
1737.863216  	97.276208 
1739.792032  	97.476268 
1741.720848  	97.319502 
1743.649664  	97.167421 
1745.578480  	97.236808 
1747.507296  	97.240952 
1749.436112  	97.273786 
1751.364928  	97.575048 
1753.293744  	97.786271 
1755.222560  	97.930981 
1757.151376  	97.842453 
1759.080192  	97.945433 
1761.009008  	98.059515 
1762.937824  	98.189849 
1764.866640  	98.255134 
1766.795456  	98.230886 
1768.724272  	98.114480 
1770.653088  	98.213739 
1772.581904  	98.159149 
1774.510720  	98.139701 
1776.439536  	98.121869 
1778.368352  	98.164556 
1780.297168  	98.058216 
1782.225984  	98.120732 
1784.154800  	98.154959 
1786.083616  	98.211212 
1788.012432  	98.202317 
1789.941248  	98.148573 
1791.870064  	98.045763 
1793.798880  	98.066477 
1795.727696  	97.927044 
1797.656512  	98.080452 
1799.585328  	98.077200 
1801.514144  	97.974347 
1803.442960  	98.056999 
1805.371776  	98.118318 
1807.300592  	98.018393 
1809.229408  	97.980962 
1811.158224  	97.851858 
1813.087040  	97.942473 
1815.015856  	98.029716 
1816.944672  	98.016863 
1818.873488  	98.000601 
1820.802304  	97.998634 
1822.731120  	97.941346 
1824.659936  	97.912688 
1826.588752  	97.842535 
1828.517568  	97.758063 
1830.446384  	97.621338 
1832.375200  	97.620265 
1834.304016  	97.545117 
1836.232832  	97.544391 
1838.161648  	97.542642 
1840.090464  	97.596416 
1842.019280  	97.543141 
1843.948096  	97.501459 
1845.876912  	97.328893 
1847.805728  	97.370837 
1849.734544  	97.522700 
1851.663360  	97.621120 
1853.592176  	97.570689 
1855.520992  	97.574023 
1857.449808  	97.494296 
1859.378624  	97.492884 
1861.307440  	97.415664 
1863.236256  	97.379004 
1865.165072  	97.195486 
1867.093888  	96.988261 
1869.022704  	96.819192 
1870.951520  	96.991340 
1872.880336  	97.095766 
1874.809152  	97.383421 
1876.737968  	97.327072 
1878.666784  	97.291405 
1880.595600  	97.125007 
1882.524416  	97.129279 
1884.453232  	97.037720 
1886.382048  	97.054259 
1888.310864  	96.890688 
1890.239680  	96.872291 
1892.168496  	96.952287 
1894.097312  	96.976451 
1896.026128  	96.905989 
1897.954944  	97.040112 
1899.883760  	97.024250 
1901.812576  	96.894872 
1903.741392  	96.793771 
1905.670208  	96.763338 
1907.599024  	96.578538 
1909.527840  	96.527647 
1911.456656  	96.570693 
1913.385472  	96.770667 
1915.314288  	96.581846 
1917.243104  	96.417586 
1919.171920  	96.243330 
1921.100736  	96.141247 
1923.029552  	96.230607 
1924.958368  	96.561535 
1926.887184  	96.623106 
1928.816000  	96.588401 
1930.744816  	96.594723 
1932.673632  	96.647020 
1934.602448  	96.579367 
1936.531264  	96.459954 
1938.460080  	96.047822 
1940.388896  	96.126515 
1942.317712  	95.888198 
1944.246528  	95.914146 
1946.175344  	96.005624 
1948.104160  	96.362048 
1950.032976  	96.074291 
1951.961792  	96.127396 
1953.890608  	96.116388 
1955.819424  	96.080962 
1957.748240  	95.958671 
1959.677056  	96.126641 
1961.605872  	95.994523 
1963.534688  	95.839007 
1965.463504  	95.395261 
1967.392320  	95.466158 
1969.321136  	95.625301 
1971.249952  	95.951218 
1973.178768  	96.027005 
1975.107584  	96.021375 
1977.036400  	96.113403 
1978.965216  	96.164508 
1980.894032  	95.828162 
1982.822848  	95.934755 
1984.751664  	95.896834 
1986.680480  	95.807822 
1988.609296  	95.088607 
1990.538112  	94.970123 
1992.466928  	94.857498 
1994.395744  	95.401450 
1996.324560  	96.074297 
1998.253376  	95.753658 
2000.182192  	94.925475 
2002.111008  	95.016955 
2004.039824  	95.077934 
2005.968640  	95.497525 
2007.897456  	95.417836 
2009.826272  	95.610554 
2011.755088  	95.387924 
2013.683904  	95.362956 
2015.612720  	94.878743 
2017.541536  	94.546288 
2019.470352  	94.963863 
2021.399168  	95.570185 
2023.327984  	95.079529 
2025.256800  	95.036751 
2027.185616  	94.771268 
2029.114432  	94.981890 
2031.043248  	95.132960 
2032.972064  	95.292873 
2034.900880  	94.623024 
2036.829696  	94.767264 
2038.758512  	94.906735 
2040.687328  	94.581468 
2042.616144  	94.290629 
2044.544960  	94.664425 
2046.473776  	94.729746 
2048.402592  	94.734658 
2050.331408  	94.567978 
2052.260224  	94.905611 
2054.189040  	95.189221 
2056.117856  	95.394833 
2058.046672  	95.208594 
2059.975488  	95.147570 
2061.904304  	95.078790 
2063.833120  	94.832764 
2065.761936  	94.672977 
2067.690752  	95.108103 
2069.619568  	95.355572 
2071.548384  	95.351826 
2073.477200  	95.129611 
2075.406016  	95.399184 
2077.334832  	95.363767 
2079.263648  	95.363998 
2081.192464  	95.317513 
2083.121280  	95.301383 
2085.050096  	95.123406 
2086.978912  	95.090823 
2088.907728  	95.083670 
2090.836544  	95.222622 
2092.765360  	95.327079 
2094.694176  	95.194110 
2096.622992  	95.079384 
2098.551808  	95.293492 
2100.480624  	95.170807 
2102.409440  	95.131812 
2104.338256  	94.983920 
2106.267072  	95.114429 
2108.195888  	95.181977 
2110.124704  	95.146235 
2112.053520  	95.077354 
2113.982336  	94.995977 
2115.911152  	94.960905 
2117.839968  	95.163120 
2119.768784  	95.095458 
2121.697600  	95.081307 
2123.626416  	94.880799 
2125.555232  	94.885173 
2127.484048  	95.044243 
2129.412864  	95.019034 
2131.341680  	94.922757 
2133.270496  	95.110195 
2135.199312  	95.055662 
2137.128128  	94.885148 
2139.056944  	94.740729 
2140.985760  	95.045846 
2142.914576  	94.783052 
2144.843392  	94.688356 
2146.772208  	94.668026 
2148.701024  	94.984089 
2150.629840  	95.140257 
2152.558656  	95.270466 
2154.487472  	94.940299 
2156.416288  	95.015638 
2158.345104  	94.554389 
2160.273920  	94.218297 
2162.202736  	94.320030 
2164.131552  	94.421233 
2166.060368  	93.961258 
2167.989184  	94.165966 
2169.918000  	94.417620 
2171.846816  	94.667267 
2173.775632  	94.496084 
2175.704448  	94.551457 
2177.633264  	94.455016 
2179.562080  	94.763628 
2181.490896  	94.518749 
2183.419712  	94.295778 
2185.348528  	94.269124 
2187.277344  	94.406934 
2189.206160  	94.285273 
2191.134976  	94.405855 
2193.063792  	94.369855 
2194.992608  	94.252056 
2196.921424  	94.012787 
2198.850240  	94.147500 
2200.779056  	94.183206 
2202.707872  	94.189681 
2204.636688  	94.138544 
2206.565504  	94.126680 
2208.494320  	94.026374 
2210.423136  	94.123313 
2212.351952  	93.806642 
2214.280768  	93.842928 
2216.209584  	93.984819 
2218.138400  	94.204766 
2220.067216  	94.025884 
2221.996032  	93.831085 
2223.924848  	93.713811 
2225.853664  	93.748851 
2227.782480  	93.729902 
2229.711296  	93.627344 
2231.640112  	93.504433 
2233.568928  	93.635546 
2235.497744  	93.769799 
2237.426560  	93.869358 
2239.355376  	93.916926 
2241.284192  	93.976289 
2243.213008  	93.846391 
2245.141824  	93.938010 
2247.070640  	93.776273 
2248.999456  	93.727072 
2250.928272  	93.511475 
2252.857088  	93.515896 
2254.785904  	93.509490 
2256.714720  	93.616148 
2258.643536  	93.584690 
2260.572352  	93.579031 
2262.501168  	93.581298 
2264.429984  	93.688374 
2266.358800  	93.783052 
2268.287616  	94.023172 
2270.216432  	94.076465 
2272.145248  	93.937762 
2274.074064  	93.717587 
2276.002880  	93.751016 
2277.931696  	93.742857 
2279.860512  	93.662416 
2281.789328  	93.380125 
2283.718144  	93.135655 
2285.646960  	92.966497 
2287.575776  	92.796706 
2289.504592  	92.682554 
2291.433408  	92.258481 
2293.362224  	92.448743 
2295.291040  	92.314937 
2297.219856  	91.992417 
2299.148672  	91.731256 
2301.077488  	91.567825 
2303.006304  	91.425356 
2304.935120  	91.128357 
2306.863936  	90.902812 
2308.792752  	90.724205 
2310.721568  	90.703489 
2312.650384  	90.731961 
2314.579200  	90.778308 
2316.508016  	90.619085 
2318.436832  	90.375118 
2320.365648  	90.065560 
2322.294464  	89.838122 
2324.223280  	89.604620 
2326.152096  	89.570948 
2328.080912  	89.718218 
2330.009728  	90.032323 
2331.938544  	90.306250 
2333.867360  	90.560658 
2335.796176  	90.752589 
2337.724992  	90.939857 
2339.653808  	90.886887 
2341.582624  	90.636958 
2343.511440  	90.248442 
2345.440256  	89.851382 
2347.369072  	89.259501 
2349.297888  	89.057145 
2351.226704  	89.720885 
2353.155520  	90.534818 
2355.084336  	90.999026 
2357.013152  	91.366050 
2358.941968  	91.414811 
2360.870784  	91.706389 
2362.799600  	91.920722 
2364.728416  	91.976366 
2366.657232  	91.987821 
2368.586048  	91.940206 
2370.514864  	91.818131 
2372.443680  	91.612378 
2374.372496  	91.282874 
2376.301312  	91.032084 
2378.230128  	90.850932 
2380.158944  	90.879809 
2382.087760  	91.096735 
2384.016576  	91.390405 
2385.945392  	91.699041 
2387.874208  	91.908021 
2389.803024  	91.974586 
2391.731840  	92.036633 
2393.660656  	92.008046 
2395.589472  	91.940296 
2397.518288  	91.912398 
2399.447104  	91.953537 
2401.375920  	91.868758 
2403.304736  	91.838804 
2405.233552  	91.872741 
2407.162368  	91.898854 
2409.091184  	91.804510 
2411.020000  	91.760296 
2412.948816  	91.776492 
2414.877632  	91.789737 
2416.806448  	91.704213 
2418.735264  	91.638979 
2420.664080  	91.577624 
2422.592896  	91.521502 
2424.521712  	91.521365 
2426.450528  	91.562183 
2428.379344  	91.479817 
2430.308160  	91.400669 
2432.236976  	91.342290 
2434.165792  	91.352526 
2436.094608  	91.343556 
2438.023424  	91.294509 
2439.952240  	91.232711 
2441.881056  	91.172346 
2443.809872  	91.107881 
2445.738688  	91.103637 
2447.667504  	91.103539 
2449.596320  	91.117753 
2451.525136  	91.111763 
2453.453952  	91.099585 
2455.382768  	90.993460 
2457.311584  	90.890325 
2459.240400  	90.879724 
2461.169216  	90.913214 
2463.098032  	90.854371 
2465.026848  	90.839250 
2466.955664  	90.781242 
2468.884480  	90.755388 
2470.813296  	90.769253 
2472.742112  	90.729424 
2474.670928  	90.597801 
2476.599744  	90.579587 
2478.528560  	90.593634 
2480.457376  	90.570851 
2482.386192  	90.453125 
2484.315008  	90.446614 
2486.243824  	90.520269 
2488.172640  	90.510621 
2490.101456  	90.316527 
2492.030272  	90.229519 
2493.959088  	90.340745 
2495.887904  	90.351747 
2497.816720  	90.202712 
2499.745536  	90.145428 
2501.674352  	90.079148 
2503.603168  	90.023014 
2505.531984  	89.995054 
2507.460800  	89.934255 
2509.389616  	89.830186 
2511.318432  	89.823475 
2513.247248  	89.810008 
2515.176064  	89.844392 
2517.104880  	89.812298 
2519.033696  	89.773176 
2520.962512  	89.734695 
2522.891328  	89.756621 
2524.820144  	89.687582 
2526.748960  	89.637747 
2528.677776  	89.616417 
2530.606592  	89.608647 
2532.535408  	89.628611 
2534.464224  	89.679220 
2536.393040  	89.658506 
2538.321856  	89.629109 
2540.250672  	89.638518 
2542.179488  	89.667475 
2544.108304  	89.621524 
2546.037120  	89.549971 
2547.965936  	89.483463 
2549.894752  	89.479400 
2551.823568  	89.439121 
2553.752384  	89.472676 
2555.681200  	89.540830 
2557.610016  	89.557267 
2559.538832  	89.600633 
2561.467648  	89.678764 
2563.396464  	89.694362 
2565.325280  	89.707519 
2567.254096  	89.733180 
2569.182912  	89.766282 
2571.111728  	89.810464 
2573.040544  	89.894396 
2574.969360  	89.949022 
2576.898176  	89.917819 
2578.826992  	89.775754 
2580.755808  	89.699370 
2582.684624  	89.612780 
2584.613440  	89.499228 
2586.542256  	89.461070 
2588.471072  	89.429663 
2590.399888  	89.353894 
2592.328704  	89.309089 
2594.257520  	89.253717 
2596.186336  	89.199188 
2598.115152  	89.180934 
2600.043968  	89.236412 
2601.972784  	89.213088 
2603.901600  	89.192641 
2605.830416  	89.245215 
2607.759232  	89.263782 
2609.688048  	89.248619 
2611.616864  	89.280687 
2613.545680  	89.250079 
2615.474496  	89.160951 
2617.403312  	89.131759 
2619.332128  	89.099279 
2621.260944  	89.038786 
2623.189760  	88.985897 
2625.118576  	88.962922 
2627.047392  	88.984854 
2628.976208  	88.983594 
2630.905024  	88.958650 
2632.833840  	88.947358 
2634.762656  	88.868765 
2636.691472  	88.787638 
2638.620288  	88.783445 
2640.549104  	88.819735 
2642.477920  	88.827120 
2644.406736  	88.804806 
2646.335552  	88.815040 
2648.264368  	88.847126 
2650.193184  	88.913639 
2652.122000  	88.986061 
2654.050816  	89.000238 
2655.979632  	88.934639 
2657.908448  	88.852591 
2659.837264  	88.817296 
2661.766080  	88.809734 
2663.694896  	88.792143 
2665.623712  	88.801728 
2667.552528  	88.827071 
2669.481344  	88.919071 
2671.410160  	89.012685 
2673.338976  	89.094009 
2675.267792  	89.164697 
2677.196608  	89.215531 
2679.125424  	89.258904 
2681.054240  	89.309867 
2682.983056  	89.366930 
2684.911872  	89.442725 
2686.840688  	89.512145 
2688.769504  	89.572648 
2690.698320  	89.626159 
2692.627136  	89.676220 
2694.555952  	89.689217 
2696.484768  	89.677295 
2698.413584  	89.654604 
2700.342400  	89.634666 
2702.271216  	89.581559 
2704.200032  	89.537387 
2706.128848  	89.474492 
2708.057664  	89.448848 
2709.986480  	89.389015 
2711.915296  	89.355699 
2713.844112  	89.344613 
2715.772928  	89.319825 
2717.701744  	89.330546 
2719.630560  	89.354080 
2721.559376  	89.315019 
2723.488192  	89.254831 
2725.417008  	89.224050 
2727.345824  	89.258296 
2729.274640  	89.257423 
2731.203456  	89.301617 
2733.132272  	89.350895 
2735.061088  	89.345184 
2736.989904  	89.334256 
2738.918720  	89.353947 
2740.847536  	89.394628 
2742.776352  	89.408289 
2744.705168  	89.425078 
2746.633984  	89.423133 
2748.562800  	89.344493 
2750.491616  	89.242519 
2752.420432  	89.189422 
2754.349248  	89.165670 
2756.278064  	89.114368 
2758.206880  	89.036678 
2760.135696  	88.957814 
2762.064512  	88.860823 
2763.993328  	88.790826 
2765.922144  	88.754525 
2767.850960  	88.725984 
2769.779776  	88.714897 
2771.708592  	88.725487 
2773.637408  	88.682076 
2775.566224  	88.640028 
2777.495040  	88.686977 
2779.423856  	88.688045 
2781.352672  	88.677309 
2783.281488  	88.663797 
2785.210304  	88.665909 
2787.139120  	88.726112 
2789.067936  	88.781098 
2790.996752  	88.738316 
2792.925568  	88.700213 
2794.854384  	88.732856 
2796.783200  	88.757260 
2798.712016  	88.741844 
2800.640832  	88.699212 
2802.569648  	88.639708 
2804.498464  	88.611459 
2806.427280  	88.577764 
2808.356096  	88.537357 
2810.284912  	88.482872 
2812.213728  	88.468415 
2814.142544  	88.427777 
2816.071360  	88.361597 
2818.000176  	88.345138 
2819.928992  	88.361157 
2821.857808  	88.339599 
2823.786624  	88.263198 
2825.715440  	88.198560 
2827.644256  	88.180335 
2829.573072  	88.114155 
2831.501888  	88.098104 
2833.430704  	88.106239 
2835.359520  	88.079488 
2837.288336  	88.078070 
2839.217152  	88.131742 
2841.145968  	88.170869 
2843.074784  	88.257026 
2845.003600  	88.368271 
2846.932416  	88.469493 
2848.861232  	88.521839 
2850.790048  	88.552878 
2852.718864  	88.549630 
2854.647680  	88.503244 
2856.576496  	88.399590 
2858.505312  	88.335481 
2860.434128  	88.306305 
2862.362944  	88.207338 
2864.291760  	88.148946 
2866.220576  	88.157253 
2868.149392  	88.144039 
2870.078208  	88.076820 
2872.007024  	88.004442 
2873.935840  	87.952442 
2875.864656  	87.872447 
2877.793472  	87.820263 
2879.722288  	87.775876 
2881.651104  	87.780421 
2883.579920  	87.807088 
2885.508736  	87.794067 
2887.437552  	87.740772 
2889.366368  	87.753562 
2891.295184  	87.770938 
2893.224000  	87.784749 
2895.152816  	87.780301 
2897.081632  	87.742616 
2899.010448  	87.717974 
2900.939264  	87.736395 
2902.868080  	87.757790 
2904.796896  	87.756419 
2906.725712  	87.713713 
2908.654528  	87.689488 
2910.583344  	87.709834 
2912.512160  	87.833613 
2914.440976  	88.007139 
2916.369792  	88.172652 
2918.298608  	88.246146 
2920.227424  	88.300677 
2922.156240  	88.341758 
2924.085056  	88.316383 
2926.013872  	88.262352 
2927.942688  	88.169349 
2929.871504  	88.079160 
2931.800320  	88.032379 
2933.729136  	87.965863 
2935.657952  	87.833894 
2937.586768  	87.704365 
2939.515584  	87.671859 
2941.444400  	87.640723 
2943.373216  	87.588818 
2945.302032  	87.541002 
2947.230848  	87.472606 
2949.159664  	87.382223 
2951.088480  	87.327655 
2953.017296  	87.237127 
2954.946112  	87.209565 
2956.874928  	87.221829 
2958.803744  	87.148633 
2960.732560  	87.061779 
2962.661376  	87.004045 
2964.590192  	86.944988 
2966.519008  	86.831381 
2968.447824  	86.788714 
2970.376640  	86.772153 
2972.305456  	86.768843 
2974.234272  	86.737293 
2976.163088  	86.664094 
2978.091904  	86.621502 
2980.020720  	86.602027 
2981.949536  	86.620295 
2983.878352  	86.642403 
2985.807168  	86.651405 
2987.735984  	86.722680 
2989.664800  	86.770310 
2991.593616  	86.771610 
2993.522432  	86.777576 
2995.451248  	86.794610 
2997.380064  	86.811399 
2999.308880  	86.839134 
3001.237696  	86.883453 
3003.166512  	86.837088 
3005.095328  	86.810442 
3007.024144  	86.864222 
3008.952960  	86.862087 
3010.881776  	86.830876 
3012.810592  	86.851321 
3014.739408  	86.903716 
3016.668224  	87.040681 
3018.597040  	87.069655 
3020.525856  	86.921172 
3022.454672  	86.838315 
3024.383488  	86.834117 
3026.312304  	86.805891 
3028.241120  	86.750784 
3030.169936  	86.636113 
3032.098752  	86.577063 
3034.027568  	86.586227 
3035.956384  	86.646539 
3037.885200  	86.622501 
3039.814016  	86.575941 
3041.742832  	86.530392 
3043.671648  	86.515057 
3045.600464  	86.430248 
3047.529280  	86.265783 
3049.458096  	86.139603 
3051.386912  	85.996277 
3053.315728  	85.864747 
3055.244544  	85.634219 
3057.173360  	85.404498 
3059.102176  	85.202731 
3061.030992  	84.889984 
3062.959808  	84.616485 
3064.888624  	84.420712 
3066.817440  	84.352234 
3068.746256  	84.402296 
3070.675072  	84.426214 
3072.603888  	84.356516 
3074.532704  	84.313746 
3076.461520  	84.272194 
3078.390336  	84.156485 
3080.319152  	84.116869 
3082.247968  	84.246582 
3084.176784  	84.435486 
3086.105600  	84.640846 
3088.034416  	84.796690 
3089.963232  	84.950869 
3091.892048  	85.131349 
3093.820864  	85.287439 
3095.749680  	85.524936 
3097.678496  	85.804003 
3099.607312  	85.902353 
3101.536128  	86.080011 
3103.464944  	86.295330 
3105.393760  	86.288664 
3107.322576  	86.180058 
3109.251392  	86.270316 
3111.180208  	86.360694 
3113.109024  	86.282259 
3115.037840  	86.106987 
3116.966656  	85.881786 
3118.895472  	85.713481 
3120.824288  	85.633332 
3122.753104  	85.708873 
3124.681920  	85.892677 
3126.610736  	86.076765 
3128.539552  	86.375154 
3130.468368  	86.557947 
3132.397184  	86.691743 
3134.326000  	86.937535 
3136.254816  	87.204758 
3138.183632  	87.455326 
3140.112448  	87.620377 
3142.041264  	87.710463 
3143.970080  	87.836795 
3145.898896  	88.006691 
3147.827712  	88.125471 
3149.756528  	88.192899 
3151.685344  	88.180905 
3153.614160  	88.177277 
3155.542976  	88.192286 
3157.471792  	88.186658 
3159.400608  	88.183111 
3161.329424  	88.109972 
3163.258240  	88.073871 
3165.187056  	88.074375 
3167.115872  	87.965300 
3169.044688  	87.831684 
3170.973504  	87.854362 
3172.902320  	87.815094 
3174.831136  	87.754909 
3176.759952  	87.654861 
3178.688768  	87.617202 
3180.617584  	87.655446 
3182.546400  	87.623658 
3184.475216  	87.493430 
3186.404032  	87.481776 
3188.332848  	87.486509 
3190.261664  	87.437097 
3192.190480  	87.299932 
3194.119296  	87.210081 
3196.048112  	87.099593 
3197.976928  	87.043152 
3199.905744  	86.962105 
3201.834560  	86.895568 
3203.763376  	86.900711 
3205.692192  	86.802598 
3207.621008  	86.702260 
3209.549824  	86.581504 
3211.478640  	86.414185 
3213.407456  	86.345717 
3215.336272  	86.284266 
3217.265088  	86.196326 
3219.193904  	86.157224 
3221.122720  	86.118253 
3223.051536  	86.043194 
3224.980352  	85.984492 
3226.909168  	85.871149 
3228.837984  	85.739217 
3230.766800  	85.763476 
3232.695616  	85.821273 
3234.624432  	85.916891 
3236.553248  	86.105710 
3238.482064  	86.295795 
3240.410880  	86.388508 
3242.339696  	86.323211 
3244.268512  	86.281095 
3246.197328  	86.398679 
3248.126144  	86.451728 
3250.054960  	86.307787 
3251.983776  	86.226836 
3253.912592  	86.276319 
3255.841408  	86.373554 
3257.770224  	86.394114 
3259.699040  	86.412487 
3261.627856  	86.351034 
3263.556672  	86.232300 
3265.485488  	86.247643 
3267.414304  	86.337053 
3269.343120  	86.309916 
3271.271936  	86.125963 
3273.200752  	86.020938 
3275.129568  	85.998049 
3277.058384  	85.988220 
3278.987200  	85.972641 
3280.916016  	85.903748 
3282.844832  	85.863878 
3284.773648  	85.906259 
3286.702464  	85.773444 
3288.631280  	85.579252 
3290.560096  	85.493617 
3292.488912  	85.443284 
3294.417728  	85.424057 
3296.346544  	85.309432 
3298.275360  	85.252264 
3300.204176  	85.258859 
3302.132992  	85.184940 
3304.061808  	85.013418 
3305.990624  	84.854981 
3307.919440  	84.720532 
3309.848256  	84.630453 
3311.777072  	84.481862 
3313.705888  	84.474656 
3315.634704  	84.496463 
3317.563520  	84.335912 
3319.492336  	84.161194 
3321.421152  	84.030842 
3323.349968  	83.833336 
3325.278784  	83.692290 
3327.207600  	83.697806 
3329.136416  	83.662100 
3331.065232  	83.448029 
3332.994048  	83.246349 
3334.922864  	83.070751 
3336.851680  	82.993440 
3338.780496  	82.990297 
3340.709312  	82.827688 
3342.638128  	82.663044 
3344.566944  	82.572409 
3346.495760  	82.368607 
3348.424576  	82.174608 
3350.353392  	82.013280 
3352.282208  	81.794970 
3354.211024  	81.497323 
3356.139840  	81.212535 
3358.068656  	81.049565 
3359.997472  	80.958682 
3361.926288  	81.109145 
3363.855104  	81.397952 
3365.783920  	81.666191 
3367.712736  	82.160905 
3369.641552  	82.702782 
3371.570368  	82.924746 
3373.499184  	83.009160 
3375.428000  	82.998985 
3377.356816  	82.966050 
3379.285632  	82.856261 
3381.214448  	82.844445 
3383.143264  	82.995360 
3385.072080  	83.295672 
3387.000896  	83.698634 
3388.929712  	84.061951 
3390.858528  	84.317824 
3392.787344  	84.505949 
3394.716160  	84.716515 
3396.644976  	84.739947 
3398.573792  	84.840475 
3400.502608  	84.902117 
3402.431424  	84.930274 
3404.360240  	84.901182 
3406.289056  	84.814341 
3408.217872  	84.906552 
3410.146688  	85.106147 
3412.075504  	85.111417 
3414.004320  	85.118726 
3415.933136  	85.109697 
3417.861952  	84.905179 
3419.790768  	84.604882 
3421.719584  	84.601864 
3423.648400  	84.765682 
3425.577216  	84.789313 
3427.506032  	84.786670 
3429.434848  	84.812799 
3431.363664  	84.902511 
3433.292480  	84.962218 
3435.221296  	84.695431 
3437.150112  	84.548780 
3439.078928  	84.519252 
3441.007744  	84.225319 
3442.936560  	84.013343 
3444.865376  	83.951529 
3446.794192  	83.612720 
3448.723008  	83.697263 
3450.651824  	83.867140 
3452.580640  	83.577305 
3454.509456  	83.226331 
3456.438272  	82.927303 
3458.367088  	82.797750 
3460.295904  	82.842633 
3462.224720  	83.076380 
3464.153536  	83.506890 
3466.082352  	83.720974 
3468.011168  	83.849746 
3469.939984  	83.876479 
3471.868800  	83.846635 
3473.797616  	83.832590 
3475.726432  	84.058712 
3477.655248  	84.178146 
3479.584064  	83.921423 
3481.512880  	83.846925 
3483.441696  	84.092211 
3485.370512  	84.151357 
3487.299328  	84.046625 
3489.228144  	84.136862 
3491.156960  	84.269972 
3493.085776  	84.117048 
3495.014592  	83.959673 
3496.943408  	84.001712 
3498.872224  	84.050391 
3500.801040  	83.682029 
3502.729856  	83.547879 
3504.658672  	84.131532 
3506.587488  	84.429373 
3508.516304  	84.231106 
3510.445120  	84.514438 
3512.373936  	85.047323 
3514.302752  	85.311427 
3516.231568  	85.288480 
3518.160384  	85.160654 
3520.089200  	84.936458 
3522.018016  	84.271353 
3523.946832  	83.913948 
3525.875648  	83.925451 
3527.804464  	84.005620 
3529.733280  	84.416898 
3531.662096  	84.799777 
3533.590912  	84.790031 
3535.519728  	84.527661 
3537.448544  	84.780457 
3539.377360  	85.031037 
3541.306176  	84.771822 
3543.234992  	84.354433 
3545.163808  	84.175205 
3547.092624  	84.395376 
3549.021440  	84.577373 
3550.950256  	84.524913 
3552.879072  	84.566367 
3554.807888  	84.784901 
3556.736704  	84.892158 
3558.665520  	84.928516 
3560.594336  	84.932184 
3562.523152  	84.893785 
3564.451968  	84.595914 
3566.380784  	84.548665 
3568.309600  	85.490856 
3570.238416  	85.992360 
3572.167232  	86.292829 
3574.096048  	86.562353 
3576.024864  	86.803659 
3577.953680  	86.953699 
3579.882496  	87.092444 
3581.811312  	87.316841 
3583.740128  	87.537958 
3585.668944  	87.551619 
3587.597760  	87.710987 
3589.526576  	88.176409 
3591.455392  	88.371336 
3593.384208  	88.449505 
3595.313024  	88.531487 
3597.241840  	88.705055 
3599.170656  	88.906341 
3601.099472  	89.087297 
3603.028288  	89.295405 
3604.957104  	89.529806 
3606.885920  	89.738594 
3608.814736  	89.906491 
3610.743552  	90.080973 
3612.672368  	90.061058 
3614.601184  	90.099543 
3616.530000  	90.366518 
3618.458816  	90.623384 
3620.387632  	90.910058 
3622.316448  	91.088606 
3624.245264  	91.270530 
3626.174080  	91.454461 
3628.102896  	91.513529 
3630.031712  	91.751008 
3631.960528  	91.752999 
3633.889344  	91.914526 
3635.818160  	92.065459 
3637.746976  	92.174261 
3639.675792  	92.335743 
3641.604608  	92.446690 
3643.533424  	92.620527 
3645.462240  	92.812882 
3647.391056  	92.699187 
3649.319872  	92.705304 
3651.248688  	93.101806 
3653.177504  	93.134039 
3655.106320  	93.193165 
3657.035136  	93.350177 
3658.963952  	93.418356 
3660.892768  	93.491339 
3662.821584  	93.574017 
3664.750400  	93.564739 
3666.679216  	93.702387 
3668.608032  	93.665074 
3670.536848  	93.589920 
3672.465664  	93.667255 
3674.394480  	93.559085 
3676.323296  	93.407238 
3678.252112  	93.321247 
3680.180928  	93.404310 
3682.109744  	93.407897 
3684.038560  	93.380299 
3685.967376  	93.589897 
3687.896192  	93.713805 
3689.825008  	93.351519 
3691.753824  	93.322111 
3693.682640  	93.260411 
3695.611456  	93.100701 
3697.540272  	93.126170 
3699.469088  	93.339526 
3701.397904  	93.404431 
3703.326720  	93.413952 
3705.255536  	93.369624 
3707.184352  	93.503871 
3709.113168  	93.399471 
3711.041984  	93.299650 
3712.970800  	93.541496 
3714.899616  	93.498362 
3716.828432  	93.457715 
3718.757248  	93.354858 
3720.686064  	93.232480 
3722.614880  	92.926323 
3724.543696  	92.704022 
3726.472512  	92.775285 
3728.401328  	93.152215 
3730.330144  	93.493822 
3732.258960  	93.544134 
3734.187776  	92.815104 
3736.116592  	92.619007 
3738.045408  	92.972255 
3739.974224  	93.009512 
3741.903040  	93.529816 
3743.831856  	94.235656 
3745.760672  	93.814314 
3747.689488  	93.402233 
3749.618304  	93.523580 
3751.547120  	93.537032 
3753.475936  	93.579142 
3755.404752  	93.383540 
3757.333568  	93.322271 
3759.262384  	93.408272 
3761.191200  	93.540030 
3763.120016  	93.402188 
3765.048832  	93.356691 
3766.977648  	93.416020 
3768.906464  	93.496171 
3770.835280  	93.571228 
3772.764096  	93.604404 
3774.692912  	93.592553 
3776.621728  	93.624970 
3778.550544  	93.625903 
3780.479360  	93.549195 
3782.408176  	93.327062 
3784.336992  	93.255511 
3786.265808  	93.370851 
3788.194624  	93.421842 
3790.123440  	93.422266 
3792.052256  	93.443161 
3793.981072  	93.401796 
3795.909888  	93.322369 
3797.838704  	93.354375 
3799.767520  	93.560182 
3801.696336  	93.441348 
3803.625152  	93.296119 
3805.553968  	93.368467 
3807.482784  	93.515922 
3809.411600  	93.312416 
3811.340416  	93.196150 
3813.269232  	93.315335 
3815.198048  	93.419816 
3817.126864  	93.274629 
3819.055680  	93.055623 
3820.984496  	93.039693 
3822.913312  	93.091786 
3824.842128  	92.854782 
3826.770944  	92.839101 
3828.699760  	92.948593 
3830.628576  	93.072083 
3832.557392  	93.103808 
3834.486208  	93.097790 
3836.415024  	93.015559 
3838.343840  	92.671729 
3840.272656  	92.529095 
3842.201472  	92.644920 
3844.130288  	92.720306 
3846.059104  	92.710638 
3847.987920  	92.619957 
3849.916736  	92.719340 
3851.845552  	93.077137 
3853.774368  	93.356895 
3855.703184  	92.841405 
3857.632000  	92.445513 
3859.560816  	92.463420 
3861.489632  	92.415296 
3863.418448  	92.378852 
3865.347264  	92.572189 
3867.276080  	92.669732 
3869.204896  	92.565590 
3871.133712  	92.416235 
3873.062528  	92.359822 
3874.991344  	92.560015 
3876.920160  	92.586791 
3878.848976  	92.562875 
3880.777792  	92.433268 
3882.706608  	92.443777 
3884.635424  	92.636999 
3886.564240  	92.844925 
3888.493056  	92.719061 
3890.421872  	92.572086 
3892.350688  	92.583425 
3894.279504  	92.662342 
3896.208320  	92.717268 
3898.137136  	92.680518 
3900.065952  	92.626401 
3901.994768  	92.564364 
3903.923584  	92.539443 
3905.852400  	92.720349 
3907.781216  	92.932963 
3909.710032  	93.066618 
3911.638848  	93.098018 
3913.567664  	93.041637 
3915.496480  	92.861547 
3917.425296  	92.780332 
3919.354112  	92.796466 
3921.282928  	92.717150 
3923.211744  	92.565664 
3925.140560  	92.646929 
3927.069376  	92.720778 
3928.998192  	92.532395 
3930.927008  	92.458244 
3932.855824  	92.573050 
3934.784640  	92.732341 
3936.713456  	92.740051 
3938.642272  	92.706110 
3940.571088  	92.618862 
3942.499904  	92.490775 
3944.428720  	92.547736 
3946.357536  	92.441767 
3948.286352  	92.275875 
3950.215168  	92.403803 
3952.143984  	92.551697 
3954.072800  	92.600431 
3956.001616  	92.545341 
3957.930432  	92.470887 
3959.859248  	92.369638 
3961.788064  	92.379868 
3963.716880  	92.624539 
3965.645696  	92.703645 
3967.574512  	92.527179 
3969.503328  	92.393937 
3971.432144  	92.393783 
3973.360960  	92.371012 
3975.289776  	92.474638 
3977.218592  	92.689156 
3979.147408  	92.727139 
3981.076224  	92.659702 
3983.005040  	92.650069 
3984.933856  	92.733991 
3986.862672  	92.683054 
3988.791488  	92.511344 
3990.720304  	92.519011 
3992.649120  	92.605068 
3994.577936  	92.613454 
3996.506752  	92.722294 
3998.435568  	92.698229 
4000.364384  	92.645104 