##TITLE=EP142
##DATA TYPE=INFRARED SPECTRUM
##XUNITS=1/CM
##YUNITS=%T
399.264912  	93.234960 
401.193728  	95.607809 
403.122544  	85.905832 
405.051360  	81.356699 
406.980176  	78.939490 
408.908992  	79.039186 
410.837808  	75.538165 
412.766624  	73.128148 
414.695440  	72.587674 
416.624256  	68.629649 
418.553072  	66.374778 
420.481888  	65.437797 
422.410704  	67.223575 
424.339520  	70.473415 
426.268336  	74.921228 
428.197152  	76.242215 
430.125968  	76.261866 
432.054784  	76.680357 
433.983600  	75.185910 
435.912416  	75.051352 
437.841232  	75.909489 
439.770048  	75.341962 
441.698864  	74.472359 
443.627680  	74.658101 
445.556496  	74.377436 
447.485312  	74.504007 
449.414128  	75.228779 
451.342944  	74.241743 
453.271760  	74.264699 
455.200576  	74.891433 
457.129392  	74.104850 
459.058208  	74.634783 
460.987024  	75.526562 
462.915840  	76.217592 
464.844656  	77.091469 
466.773472  	76.114445 
468.702288  	75.337968 
470.631104  	75.410369 
472.559920  	75.026073 
474.488736  	75.889654 
476.417552  	76.757118 
478.346368  	77.040741 
480.275184  	77.305243 
482.204000  	77.097124 
484.132816  	76.510574 
486.061632  	76.715281 
487.990448  	77.437579 
489.919264  	76.990886 
491.848080  	76.919854 
493.776896  	77.272346 
495.705712  	77.364116 
497.634528  	77.858977 
499.563344  	77.622626 
501.492160  	76.815849 
503.420976  	77.208293 
505.349792  	76.977201 
507.278608  	76.763624 
509.207424  	77.659243 
511.136240  	78.127540 
513.065056  	78.126280 
514.993872  	77.783097 
516.922688  	77.187180 
518.851504  	77.417448 
520.780320  	79.151123 
522.709136  	80.379930 
524.637952  	79.626462 
526.566768  	79.392850 
528.495584  	80.263592 
530.424400  	80.325148 
532.353216  	80.363347 
534.282032  	80.033505 
536.210848  	79.599542 
538.139664  	79.177500 
540.068480  	78.842145 
541.997296  	79.178431 
543.926112  	78.961057 
545.854928  	78.122153 
547.783744  	77.731016 
549.712560  	77.984204 
551.641376  	78.090729 
553.570192  	78.147490 
555.499008  	78.161709 
557.427824  	78.081169 
559.356640  	77.753216 
561.285456  	77.646338 
563.214272  	77.853822 
565.143088  	77.717103 
567.071904  	77.530256 
569.000720  	77.814232 
570.929536  	78.092419 
572.858352  	78.228054 
574.787168  	77.675897 
576.715984  	77.521853 
578.644800  	77.780194 
580.573616  	77.595846 
582.502432  	78.137928 
584.431248  	78.912605 
586.360064  	79.427508 
588.288880  	79.763114 
590.217696  	79.307806 
592.146512  	79.055011 
594.075328  	79.561068 
596.004144  	80.033367 
597.932960  	79.806689 
599.861776  	79.558873 
601.790592  	80.044958 
603.719408  	80.118567 
605.648224  	79.893068 
607.577040  	79.861788 
609.505856  	79.997245 
611.434672  	79.983491 
613.363488  	79.869328 
615.292304  	79.647160 
617.221120  	79.544575 
619.149936  	79.723155 
621.078752  	79.690664 
623.007568  	79.307640 
624.936384  	78.927770 
626.865200  	78.731013 
628.794016  	78.569026 
630.722832  	78.342861 
632.651648  	77.872921 
634.580464  	77.425298 
636.509280  	77.044663 
638.438096  	76.449235 
640.366912  	75.453985 
642.295728  	74.484783 
644.224544  	73.511649 
646.153360  	73.756658 
648.082176  	75.228366 
650.010992  	76.759327 
651.939808  	77.538877 
653.868624  	77.962928 
655.797440  	78.142871 
657.726256  	78.184416 
659.655072  	78.203095 
661.583888  	78.198311 
663.512704  	78.526134 
665.441520  	78.741148 
667.370336  	78.402826 
669.299152  	78.014104 
671.227968  	78.285066 
673.156784  	78.224799 
675.085600  	77.727374 
677.014416  	76.969734 
678.943232  	77.311971 
680.872048  	77.132587 
682.800864  	76.721000 
684.729680  	76.522199 
686.658496  	76.367818 
688.587312  	76.367218 
690.516128  	76.552899 
692.444944  	76.696731 
694.373760  	76.539515 
696.302576  	75.910715 
698.231392  	75.255758 
700.160208  	74.812214 
702.089024  	74.395385 
704.017840  	74.366103 
705.946656  	74.780745 
707.875472  	75.465251 
709.804288  	75.871612 
711.733104  	76.250591 
713.661920  	76.920392 
715.590736  	77.939365 
717.519552  	78.959858 
719.448368  	80.128968 
721.377184  	81.845999 
723.306000  	83.498156 
725.234816  	84.723236 
727.163632  	85.354997 
729.092448  	85.285568 
731.021264  	85.274747 
732.950080  	85.034048 
734.878896  	84.761710 
736.807712  	84.340057 
738.736528  	84.004282 
740.665344  	83.644128 
742.594160  	83.259550 
744.522976  	82.734116 
746.451792  	82.288838 
748.380608  	81.929519 
750.309424  	81.451367 
752.238240  	81.031729 
754.167056  	80.627062 
756.095872  	80.299376 
758.024688  	79.901392 
759.953504  	79.323769 
761.882320  	78.525078 
763.811136  	77.308996 
765.739952  	76.015172 
767.668768  	75.104328 
769.597584  	74.996813 
771.526400  	75.636676 
773.455216  	76.424518 
775.384032  	76.878333 
777.312848  	77.218866 
779.241664  	77.495018 
781.170480  	77.764520 
783.099296  	78.411498 
785.028112  	79.641308 
786.956928  	80.633664 
788.885744  	81.433500 
790.814560  	82.298954 
792.743376  	83.813184 
794.672192  	85.490967 
796.601008  	86.644729 
798.529824  	87.089410 
800.458640  	87.252328 
802.387456  	87.167767 
804.316272  	87.256645 
806.245088  	87.447593 
808.173904  	87.708996 
810.102720  	87.782805 
812.031536  	87.631544 
813.960352  	87.363185 
815.889168  	87.140731 
817.817984  	86.551773 
819.746800  	85.684002 
821.675616  	84.781177 
823.604432  	83.989794 
825.533248  	83.466841 
827.462064  	83.402811 
829.390880  	83.720321 
831.319696  	84.376154 
833.248512  	85.241547 
835.177328  	85.917804 
837.106144  	86.185565 
839.034960  	86.038038 
840.963776  	85.721371 
842.892592  	85.489299 
844.821408  	85.207814 
846.750224  	84.934336 
848.679040  	84.714200 
850.607856  	84.591967 
852.536672  	84.583649 
854.465488  	84.727695 
856.394304  	84.920548 
858.323120  	85.189311 
860.251936  	85.393659 
862.180752  	85.359251 
864.109568  	85.236425 
866.038384  	85.223542 
867.967200  	85.215873 
869.896016  	85.106248 
871.824832  	85.037980 
873.753648  	85.079562 
875.682464  	85.105847 
877.611280  	85.223374 
879.540096  	85.342883 
881.468912  	85.513242 
883.397728  	85.525793 
885.326544  	85.521682 
887.255360  	85.392521 
889.184176  	85.155552 
891.112992  	84.772229 
893.041808  	84.653875 
894.970624  	84.755320 
896.899440  	84.902251 
898.828256  	84.742362 
900.757072  	84.434690 
902.685888  	84.145471 
904.614704  	83.990450 
906.543520  	83.783124 
908.472336  	83.527231 
910.401152  	83.369716 
912.329968  	83.358707 
914.258784  	83.366458 
916.187600  	83.482182 
918.116416  	83.583062 
920.045232  	83.713764 
921.974048  	83.859067 
923.902864  	83.955366 
925.831680  	84.172587 
927.760496  	84.502361 
929.689312  	84.954928 
931.618128  	85.396442 
933.546944  	85.634967 
935.475760  	85.771825 
937.404576  	85.915953 
939.333392  	86.225496 
941.262208  	86.468716 
943.191024  	86.435259 
945.119840  	86.234920 
947.048656  	85.956669 
948.977472  	85.656844 
950.906288  	85.379411 
952.835104  	85.071942 
954.763920  	84.729181 
956.692736  	84.386143 
958.621552  	83.999105 
960.550368  	83.424935 
962.479184  	82.648064 
964.408000  	81.813695 
966.336816  	81.005597 
968.265632  	80.317213 
970.194448  	80.038430 
972.123264  	80.338071 
974.052080  	80.994681 
975.980896  	81.422249 
977.909712  	81.455779 
979.838528  	81.216726 
981.767344  	81.173034 
983.696160  	81.568830 
985.624976  	82.458912 
987.553792  	83.356271 
989.482608  	84.019961 
991.411424  	84.373480 
993.340240  	84.575011 
995.269056  	84.667196 
997.197872  	84.723067 
999.126688  	84.668067 
1001.055504  	84.639615 
1002.984320  	84.585174 
1004.913136  	84.525935 
1006.841952  	84.533336 
1008.770768  	84.600630 
1010.699584  	84.613378 
1012.628400  	84.564386 
1014.557216  	84.423378 
1016.486032  	84.282790 
1018.414848  	84.125483 
1020.343664  	83.968394 
1022.272480  	83.755066 
1024.201296  	83.461304 
1026.130112  	83.161835 
1028.058928  	82.849981 
1029.987744  	82.575562 
1031.916560  	82.519673 
1033.845376  	82.637917 
1035.774192  	82.732866 
1037.703008  	82.711524 
1039.631824  	82.536576 
1041.560640  	82.406654 
1043.489456  	82.625518 
1045.418272  	83.035310 
1047.347088  	83.358876 
1049.275904  	83.438856 
1051.204720  	83.400429 
1053.133536  	83.377810 
1055.062352  	83.334935 
1056.991168  	83.118161 
1058.919984  	82.748049 
1060.848800  	82.405860 
1062.777616  	82.280857 
1064.706432  	82.336211 
1066.635248  	82.654426 
1068.564064  	83.163004 
1070.492880  	83.761952 
1072.421696  	84.279230 
1074.350512  	84.677388 
1076.279328  	84.817965 
1078.208144  	84.865645 
1080.136960  	84.769650 
1082.065776  	84.678220 
1083.994592  	84.569932 
1085.923408  	84.476663 
1087.852224  	84.303735 
1089.781040  	84.166324 
1091.709856  	83.993236 
1093.638672  	83.807817 
1095.567488  	83.599404 
1097.496304  	83.399947 
1099.425120  	83.141119 
1101.353936  	82.859961 
1103.282752  	82.581037 
1105.211568  	82.419571 
1107.140384  	82.341936 
1109.069200  	82.341332 
1110.998016  	82.412094 
1112.926832  	82.562533 
1114.855648  	82.688778 
1116.784464  	82.764678 
1118.713280  	82.704179 
1120.642096  	82.488191 
1122.570912  	82.236833 
1124.499728  	81.992614 
1126.428544  	81.844132 
1128.357360  	81.842815 
1130.286176  	81.955604 
1132.214992  	82.080870 
1134.143808  	82.099900 
1136.072624  	82.025567 
1138.001440  	81.944184 
1139.930256  	81.808071 
1141.859072  	81.598223 
1143.787888  	81.366695 
1145.716704  	81.117871 
1147.645520  	80.873773 
1149.574336  	80.643424 
1151.503152  	80.523885 
1153.431968  	80.511203 
1155.360784  	80.629045 
1157.289600  	80.770380 
1159.218416  	80.977908 
1161.147232  	81.132394 
1163.076048  	81.169510 
1165.004864  	81.091801 
1166.933680  	80.990015 
1168.862496  	80.768264 
1170.791312  	80.579127 
1172.720128  	80.320376 
1174.648944  	80.107482 
1176.577760  	79.926384 
1178.506576  	79.770475 
1180.435392  	79.607333 
1182.364208  	79.470939 
1184.293024  	79.240298 
1186.221840  	79.000642 
1188.150656  	78.847900 
1190.079472  	78.764597 
1192.008288  	78.549485 
1193.937104  	78.397148 
1195.865920  	78.291543 
1197.794736  	78.194649 
1199.723552  	78.047443 
1201.652368  	77.912847 
1203.581184  	77.834761 
1205.510000  	77.760459 
1207.438816  	77.640553 
1209.367632  	77.430891 
1211.296448  	77.144030 
1213.225264  	76.930477 
1215.154080  	76.769415 
1217.082896  	76.603942 
1219.011712  	76.589771 
1220.940528  	76.721405 
1222.869344  	76.719720 
1224.798160  	76.358567 
1226.726976  	75.943583 
1228.655792  	75.623780 
1230.584608  	75.222188 
1232.513424  	74.756528 
1234.442240  	74.340655 
1236.371056  	74.106141 
1238.299872  	74.145063 
1240.228688  	74.487499 
1242.157504  	74.894838 
1244.086320  	75.364808 
1246.015136  	75.937705 
1247.943952  	76.387481 
1249.872768  	76.549719 
1251.801584  	76.479570 
1253.730400  	76.147065 
1255.659216  	75.748842 
1257.588032  	75.310087 
1259.516848  	74.883019 
1261.445664  	74.658612 
1263.374480  	74.489953 
1265.303296  	74.144394 
1267.232112  	73.808708 
1269.160928  	73.388528 
1271.089744  	73.131729 
1273.018560  	73.136766 
1274.947376  	73.242306 
1276.876192  	73.277750 
1278.805008  	73.445193 
1280.733824  	73.724601 
1282.662640  	74.106574 
1284.591456  	74.309719 
1286.520272  	74.293466 
1288.449088  	74.366342 
1290.377904  	74.742315 
1292.306720  	75.134853 
1294.235536  	75.446807 
1296.164352  	75.674648 
1298.093168  	76.006952 
1300.021984  	76.164458 
1301.950800  	76.088981 
1303.879616  	75.857940 
1305.808432  	75.486475 
1307.737248  	75.011450 
1309.666064  	74.555204 
1311.594880  	73.840030 
1313.523696  	73.183255 
1315.452512  	72.778835 
1317.381328  	72.308601 
1319.310144  	72.143604 
1321.238960  	72.279062 
1323.167776  	72.295106 
1325.096592  	72.327632 
1327.025408  	72.427478 
1328.954224  	72.618601 
1330.883040  	72.845801 
1332.811856  	73.086031 
1334.740672  	73.024152 
1336.669488  	72.598711 
1338.598304  	72.090187 
1340.527120  	73.032202 
1342.455936  	73.980368 
1344.384752  	74.176472 
1346.313568  	74.185271 
1348.242384  	74.257436 
1350.171200  	74.516807 
1352.100016  	74.832315 
1354.028832  	75.031676 
1355.957648  	75.550930 
1357.886464  	76.075238 
1359.815280  	76.335910 
1361.744096  	76.416195 
1363.672912  	77.693781 
1365.601728  	78.547216 
1367.530544  	78.838849 
1369.459360  	79.382226 
1371.388176  	79.754909 
1373.316992  	79.785800 
1375.245808  	80.768365 
1377.174624  	81.519206 
1379.103440  	82.213983 
1381.032256  	83.034491 
1382.961072  	83.662324 
1384.889888  	83.620993 
1386.818704  	83.377209 
1388.747520  	83.518070 
1390.676336  	82.935960 
1392.605152  	81.758776 
1394.533968  	80.133054 
1396.462784  	78.761949 
1398.391600  	78.247200 
1400.320416  	78.679631 
1402.249232  	78.684385 
1404.178048  	78.893743 
1406.106864  	79.840105 
1408.035680  	80.418977 
1409.964496  	80.807704 
1411.893312  	81.405815 
1413.822128  	81.935698 
1415.750944  	81.733742 
1417.679760  	81.782923 
1419.608576  	83.507090 
1421.537392  	83.826336 
1423.466208  	83.831058 
1425.395024  	84.887765 
1427.323840  	85.402210 
1429.252656  	86.005743 
1431.181472  	86.898121 
1433.110288  	87.562677 
1435.039104  	88.400900 
1436.967920  	90.161365 
1438.896736  	90.980094 
1440.825552  	91.430930 
1442.754368  	92.050238 
1444.683184  	92.256585 
1446.612000  	92.275702 
1448.540816  	92.527337 
1450.469632  	92.685713 
1452.398448  	92.613143 
1454.327264  	92.560027 
1456.256080  	92.252204 
1458.184896  	92.301106 
1460.113712  	92.883352 
1462.042528  	93.072344 
1463.971344  	93.203786 
1465.900160  	93.030431 
1467.828976  	92.835687 
1469.757792  	92.763702 
1471.686608  	92.139893 
1473.615424  	91.661421 
1475.544240  	91.848613 
1477.473056  	92.053139 
1479.401872  	91.862695 
1481.330688  	91.594737 
1483.259504  	91.552422 
1485.188320  	91.257414 
1487.117136  	90.646547 
1489.045952  	89.682405 
1490.974768  	90.634591 
1492.903584  	91.077281 
1494.832400  	91.130796 
1496.761216  	90.741287 
1498.690032  	90.552378 
1500.618848  	90.202109 
1502.547664  	90.062564 
1504.476480  	90.937618 
1506.405296  	88.918823 
1508.334112  	87.400175 
1510.262928  	87.998821 
1512.191744  	88.407926 
1514.120560  	88.146856 
1516.049376  	87.441307 
1517.978192  	87.515568 
1519.907008  	87.381737 
1521.835824  	86.727109 
1523.764640  	86.299924 
1525.693456  	85.833087 
1527.622272  	85.755915 
1529.551088  	85.743900 
1531.479904  	85.168806 
1533.408720  	84.538404 
1535.337536  	83.910204 
1537.266352  	83.927070 
1539.195168  	83.506099 
1541.123984  	81.202364 
1543.052800  	79.799036 
1544.981616  	79.365463 
1546.910432  	79.004546 
1548.839248  	78.039930 
1550.768064  	78.044149 
1552.696880  	78.442745 
1554.625696  	79.321463 
1556.554512  	80.474153 
1558.483328  	82.423496 
1560.412144  	86.060161 
1562.340960  	84.627420 
1564.269776  	84.719823 
1566.198592  	85.222323 
1568.127408  	85.335280 
1570.056224  	85.524281 
1571.985040  	84.950892 
1573.913856  	84.530443 
1575.842672  	84.355587 
1577.771488  	83.936114 
1579.700304  	83.249517 
1581.629120  	82.828028 
1583.557936  	82.204888 
1585.486752  	81.566387 
1587.415568  	80.873908 
1589.344384  	80.087342 
1591.273200  	79.373401 
1593.202016  	78.641578 
1595.130832  	78.039672 
1597.059648  	77.807065 
1598.988464  	77.440133 
1600.917280  	76.775364 
1602.846096  	76.243191 
1604.774912  	75.862646 
1606.703728  	75.369494 
1608.632544  	75.190010 
1610.561360  	75.348578 
1612.490176  	75.306655 
1614.418992  	75.199760 
1616.347808  	76.268997 
1618.276624  	77.033164 
1620.205440  	76.110087 
1622.134256  	76.184458 
1624.063072  	77.235247 
1625.991888  	77.215110 
1627.920704  	77.570651 
1629.849520  	77.994137 
1631.778336  	77.693505 
1633.707152  	78.077096 
1635.635968  	78.898988 
1637.564784  	79.335465 
1639.493600  	79.021830 
1641.422416  	79.236163 
1643.351232  	79.412269 
1645.280048  	79.572105 
1647.208864  	80.470743 
1649.137680  	81.277679 
1651.066496  	81.783143 
1652.995312  	83.678595 
1654.924128  	84.156639 
1656.852944  	83.126205 
1658.781760  	83.474264 
1660.710576  	83.714351 
1662.639392  	84.339144 
1664.568208  	84.902298 
1666.497024  	84.751474 
1668.425840  	84.868285 
1670.354656  	85.262934 
1672.283472  	85.268338 
1674.212288  	85.606452 
1676.141104  	85.961590 
1678.069920  	85.084757 
1679.998736  	84.456108 
1681.927552  	84.681867 
1683.856368  	85.538721 
1685.785184  	86.131426 
1687.714000  	85.204683 
1689.642816  	85.553783 
1691.571632  	86.103869 
1693.500448  	86.428775 
1695.429264  	86.694485 
1697.358080  	86.239471 
1699.286896  	87.407672 
1701.215712  	88.472562 
1703.144528  	87.037113 
1705.073344  	87.116535 
1707.002160  	87.749190 
1708.930976  	87.983921 
1710.859792  	88.083598 
1712.788608  	88.100861 
1714.717424  	87.622659 
1716.646240  	87.984613 
1718.575056  	89.720820 
1720.503872  	89.714018 
1722.432688  	89.513327 
1724.361504  	90.019436 
1726.290320  	90.466223 
1728.219136  	90.486057 
1730.147952  	90.237929 
1732.076768  	90.464034 
1734.005584  	91.080638 
1735.934400  	91.551991 
1737.863216  	91.394403 
1739.792032  	91.775329 
1741.720848  	91.539667 
1743.649664  	91.177091 
1745.578480  	91.281747 
1747.507296  	91.256787 
1749.436112  	91.419637 
1751.364928  	92.174933 
1753.293744  	92.599532 
1755.222560  	92.739355 
1757.151376  	92.637515 
1759.080192  	92.766331 
1761.009008  	92.953906 
1762.937824  	93.232724 
1764.866640  	93.351602 
1766.795456  	93.334044 
1768.724272  	93.203128 
1770.653088  	93.315355 
1772.581904  	93.396293 
1774.510720  	93.401392 
1776.439536  	93.404183 
1778.368352  	93.462340 
1780.297168  	93.362725 
1782.225984  	93.542508 
1784.154800  	93.626247 
1786.083616  	93.753645 
1788.012432  	93.727535 
1789.941248  	93.547367 
1791.870064  	93.465536 
1793.798880  	93.540175 
1795.727696  	93.230905 
1797.656512  	93.574338 
1799.585328  	93.644834 
1801.514144  	93.470090 
1803.442960  	93.807184 
1805.371776  	94.083127 
1807.300592  	93.899169 
1809.229408  	93.755631 
1811.158224  	93.592354 
1813.087040  	93.950962 
1815.015856  	94.293513 
1816.944672  	94.279125 
1818.873488  	94.298458 
1820.802304  	94.326297 
1822.731120  	94.244900 
1824.659936  	94.184378 
1826.588752  	94.085029 
1828.517568  	93.912339 
1830.446384  	93.845984 
1832.375200  	93.969820 
1834.304016  	93.919842 
1836.232832  	93.897157 
1838.161648  	93.962180 
1840.090464  	94.085007 
1842.019280  	93.935732 
1843.948096  	93.833530 
1845.876912  	93.592662 
1847.805728  	93.692163 
1849.734544  	94.027951 
1851.663360  	94.232617 
1853.592176  	94.247201 
1855.520992  	94.214008 
1857.449808  	94.007423 
1859.378624  	94.015760 
1861.307440  	94.002719 
1863.236256  	94.086917 
1865.165072  	93.811090 
1867.093888  	93.254786 
1869.022704  	93.070728 
1870.951520  	93.657115 
1872.880336  	94.002855 
1874.809152  	94.284478 
1876.737968  	94.139380 
1878.666784  	94.025877 
1880.595600  	94.005583 
1882.524416  	94.043093 
1884.453232  	93.937781 
1886.382048  	94.003284 
1888.310864  	93.829086 
1890.239680  	93.814986 
1892.168496  	93.910946 
1894.097312  	93.783811 
1896.026128  	93.764910 
1897.954944  	94.082940 
1899.883760  	94.148224 
1901.812576  	93.987996 
1903.741392  	93.910331 
1905.670208  	93.881081 
1907.599024  	93.636872 
1909.527840  	93.675096 
1911.456656  	93.974261 
1913.385472  	94.257338 
1915.314288  	93.908125 
1917.243104  	93.603888 
1919.171920  	93.464136 
1921.100736  	93.156150 
1923.029552  	93.194868 
1924.958368  	93.836295 
1926.887184  	94.170847 
1928.816000  	94.335041 
1930.744816  	94.304519 
1932.673632  	94.370739 
1934.602448  	94.357495 
1936.531264  	94.474012 
1938.460080  	94.351816 
1940.388896  	94.230902 
1942.317712  	93.804959 
1944.246528  	93.993114 
1946.175344  	94.159508 
1948.104160  	94.797017 
1950.032976  	94.920000 
1951.961792  	94.872740 
1953.890608  	94.581567 
1955.819424  	94.595883 
1957.748240  	94.929991 
1959.677056  	95.460675 
1961.605872  	95.331145 
1963.534688  	95.052823 
1965.463504  	94.478521 
1967.392320  	94.370318 
1969.321136  	94.900177 
1971.249952  	95.362898 
1973.178768  	95.458719 
1975.107584  	95.467347 
1977.036400  	95.636753 
1978.965216  	95.646346 
1980.894032  	95.342075 
1982.822848  	95.292501 
1984.751664  	95.244933 
1986.680480  	95.121729 
1988.609296  	94.521185 
1990.538112  	94.476909 
1992.466928  	94.652306 
1994.395744  	95.102955 
1996.324560  	95.362734 
1998.253376  	95.188043 
2000.182192  	94.720079 
2002.111008  	94.993159 
2004.039824  	94.965672 
2005.968640  	94.983994 
2007.897456  	94.947148 
2009.826272  	95.195990 
2011.755088  	95.020145 
2013.683904  	95.157190 
2015.612720  	94.802212 
2017.541536  	94.535605 
2019.470352  	94.707383 
2021.399168  	94.950900 
2023.327984  	94.545155 
2025.256800  	94.845479 
2027.185616  	95.098731 
2029.114432  	95.093588 
2031.043248  	94.938384 
2032.972064  	95.008862 
2034.900880  	94.742612 
2036.829696  	94.943256 
2038.758512  	94.843115 
2040.687328  	94.466982 
2042.616144  	94.411589 
2044.544960  	94.867883 
2046.473776  	94.938968 
2048.402592  	95.149515 
2050.331408  	94.973793 
2052.260224  	95.026675 
2054.189040  	95.161571 
2056.117856  	95.291682 
2058.046672  	95.098342 
2059.975488  	94.858205 
2061.904304  	94.860916 
2063.833120  	94.726644 
2065.761936  	94.306264 
2067.690752  	94.475841 
2069.619568  	94.840559 
2071.548384  	94.865231 
2073.477200  	94.765125 
2075.406016  	95.115421 
2077.334832  	95.093056 
2079.263648  	94.876440 
2081.192464  	94.739872 
2083.121280  	94.789559 
2085.050096  	94.928133 
2086.978912  	94.977974 
2088.907728  	94.920361 
2090.836544  	94.957391 
2092.765360  	94.980105 
2094.694176  	94.991041 
2096.622992  	94.905474 
2098.551808  	95.072195 
2100.480624  	94.884608 
2102.409440  	94.862499 
2104.338256  	94.915495 
2106.267072  	94.918457 
2108.195888  	94.891220 
2110.124704  	94.870556 
2112.053520  	94.847041 
2113.982336  	94.818362 
2115.911152  	94.910307 
2117.839968  	95.107057 
2119.768784  	95.163496 
2121.697600  	95.317307 
2123.626416  	95.029879 
2125.555232  	94.761992 
2127.484048  	94.793439 
2129.412864  	94.961859 
2131.341680  	95.037073 
2133.270496  	95.053436 
2135.199312  	94.912560 
2137.128128  	95.000872 
2139.056944  	95.103427 
2140.985760  	95.308582 
2142.914576  	95.309462 
2144.843392  	95.307168 
2146.772208  	95.249459 
2148.701024  	95.411877 
2150.629840  	95.357587 
2152.558656  	95.372444 
2154.487472  	95.413731 
2156.416288  	95.569099 
2158.345104  	95.060057 
2160.273920  	94.803657 
2162.202736  	95.171774 
2164.131552  	95.816244 
2166.060368  	95.160739 
2167.989184  	94.888004 
2169.918000  	95.020979 
2171.846816  	95.310198 
2173.775632  	95.267175 
2175.704448  	95.244442 
2177.633264  	95.115628 
2179.562080  	94.908552 
2181.490896  	94.609027 
2183.419712  	94.593534 
2185.348528  	94.835078 
2187.277344  	95.039706 
2189.206160  	94.972511 
2191.134976  	94.938442 
2193.063792  	94.718429 
2194.992608  	94.649224 
2196.921424  	94.598804 
2198.850240  	94.896198 
2200.779056  	94.773708 
2202.707872  	94.544951 
2204.636688  	94.512884 
2206.565504  	94.402086 
2208.494320  	94.296013 
2210.423136  	94.526792 
2212.351952  	94.437711 
2214.280768  	94.324298 
2216.209584  	94.144591 
2218.138400  	94.272387 
2220.067216  	94.433068 
2221.996032  	94.311602 
2223.924848  	94.197786 
2225.853664  	94.203675 
2227.782480  	94.244935 
2229.711296  	94.256701 
2231.640112  	94.083726 
2233.568928  	94.085710 
2235.497744  	94.230408 
2237.426560  	94.394214 
2239.355376  	94.378052 
2241.284192  	94.376596 
2243.213008  	94.126482 
2245.141824  	94.127813 
2247.070640  	94.005342 
2248.999456  	93.904503 
2250.928272  	93.814288 
2252.857088  	93.897720 
2254.785904  	93.877623 
2256.714720  	93.909488 
2258.643536  	94.008769 
2260.572352  	94.194068 
2262.501168  	94.283876 
2264.429984  	94.442635 
2266.358800  	94.562431 
2268.287616  	94.698104 
2270.216432  	94.578864 
2272.145248  	94.489926 
2274.074064  	94.383808 
2276.002880  	94.376090 
2277.931696  	94.270035 
2279.860512  	94.073375 
2281.789328  	93.647689 
2283.718144  	93.222314 
2285.646960  	92.807993 
2287.575776  	92.655850 
2289.504592  	92.526584 
2291.433408  	92.169200 
2293.362224  	92.089736 
2295.291040  	91.801394 
2297.219856  	91.475436 
2299.148672  	91.118821 
2301.077488  	90.714200 
2303.006304  	90.439711 
2304.935120  	90.102289 
2306.863936  	89.864191 
2308.792752  	89.734842 
2310.721568  	89.601383 
2312.650384  	89.505985 
2314.579200  	89.611116 
2316.508016  	89.467355 
2318.436832  	89.176827 
2320.365648  	88.833540 
2322.294464  	88.371341 
2324.223280  	87.920747 
2326.152096  	87.882624 
2328.080912  	88.197141 
2330.009728  	88.570856 
2331.938544  	89.063697 
2333.867360  	89.561965 
2335.796176  	89.879600 
2337.724992  	90.224772 
2339.653808  	90.270455 
2341.582624  	89.781042 
2343.511440  	89.216061 
2345.440256  	88.671946 
2347.369072  	87.698142 
2349.297888  	87.362933 
2351.226704  	88.554888 
2353.155520  	90.128098 
2355.084336  	91.131513 
2357.013152  	91.565393 
2358.941968  	91.745696 
2360.870784  	91.914629 
2362.799600  	92.197169 
2364.728416  	92.442222 
2366.657232  	92.551018 
2368.586048  	92.417929 
2370.514864  	92.230421 
2372.443680  	91.975773 
2374.372496  	91.524854 
2376.301312  	91.090987 
2378.230128  	90.756373 
2380.158944  	90.752889 
2382.087760  	91.057371 
2384.016576  	91.566432 
2385.945392  	92.149787 
2387.874208  	92.496087 
2389.803024  	92.537826 
2391.731840  	92.585162 
2393.660656  	92.618989 
2395.589472  	92.588934 
2397.518288  	92.533282 
2399.447104  	92.571760 
2401.375920  	92.637386 
2403.304736  	92.613284 
2405.233552  	92.594651 
2407.162368  	92.556303 
2409.091184  	92.460017 
2411.020000  	92.462099 
2412.948816  	92.478397 
2414.877632  	92.487341 
2416.806448  	92.426746 
2418.735264  	92.376443 
2420.664080  	92.357071 
2422.592896  	92.369798 
2424.521712  	92.378121 
2426.450528  	92.346147 
2428.379344  	92.326606 
2430.308160  	92.312787 
2432.236976  	92.196253 
2434.165792  	92.189302 
2436.094608  	92.230804 
2438.023424  	92.215018 
2439.952240  	92.239251 
2441.881056  	92.214644 
2443.809872  	92.172615 
2445.738688  	92.195125 
2447.667504  	92.173730 
2449.596320  	92.076747 
2451.525136  	92.032133 
2453.453952  	92.063795 
2455.382768  	92.140104 
2457.311584  	92.131187 
2459.240400  	92.110848 
2461.169216  	92.192105 
2463.098032  	92.106541 
2465.026848  	92.025226 
2466.955664  	91.984965 
2468.884480  	92.005988 
2470.813296  	92.031983 
2472.742112  	92.073755 
2474.670928  	92.027239 
2476.599744  	92.008418 
2478.528560  	92.009473 
2480.457376  	92.015146 
2482.386192  	92.001233 
2484.315008  	92.095445 
2486.243824  	92.068349 
2488.172640  	92.050435 
2490.101456  	92.080825 
2492.030272  	92.089045 
2493.959088  	92.041919 
2495.887904  	91.936367 
2497.816720  	91.963086 
2499.745536  	92.058768 
2501.674352  	92.035631 
2503.603168  	91.950545 
2505.531984  	91.985401 
2507.460800  	92.030846 
2509.389616  	92.025638 
2511.318432  	92.024825 
2513.247248  	92.027220 
2515.176064  	92.121543 
2517.104880  	92.177059 
2519.033696  	92.154467 
2520.962512  	92.115506 
2522.891328  	92.183170 
2524.820144  	92.184528 
2526.748960  	92.221046 
2528.677776  	92.149178 
2530.606592  	91.978034 
2532.535408  	92.007650 
2534.464224  	92.121822 
2536.393040  	92.157705 
2538.321856  	92.182191 
2540.250672  	92.139870 
2542.179488  	92.183095 
2544.108304  	92.248046 
2546.037120  	92.277734 
2547.965936  	92.283818 
2549.894752  	92.295149 
2551.823568  	92.268697 
2553.752384  	92.237888 
2555.681200  	92.195629 
2557.610016  	92.143828 
2559.538832  	92.148861 
2561.467648  	92.229415 
2563.396464  	92.282440 
2565.325280  	92.253381 
2567.254096  	92.241412 
2569.182912  	92.233562 
2571.111728  	92.175181 
2573.040544  	92.188775 
2574.969360  	92.264623 
2576.898176  	92.228193 
2578.826992  	92.201496 
2580.755808  	92.230368 
2582.684624  	92.249803 
2584.613440  	92.197856 
2586.542256  	92.140337 
2588.471072  	92.118142 
2590.399888  	92.136956 
2592.328704  	92.213497 
2594.257520  	92.201728 
2596.186336  	92.137152 
2598.115152  	92.093044 
2600.043968  	92.046644 
2601.972784  	92.035127 
2603.901600  	92.064736 
2605.830416  	92.074089 
2607.759232  	92.053413 
2609.688048  	92.068010 
2611.616864  	92.113170 
2613.545680  	92.090215 
2615.474496  	92.042285 
2617.403312  	91.994781 
2619.332128  	91.980805 
2621.260944  	91.927062 
2623.189760  	91.947318 
2625.118576  	91.948436 
2627.047392  	91.929697 
2628.976208  	91.933436 
2630.905024  	91.938897 
2632.833840  	91.931801 
2634.762656  	91.914202 
2636.691472  	91.893542 
2638.620288  	91.925945 
2640.549104  	91.946565 
2642.477920  	91.910577 
2644.406736  	91.860376 
2646.335552  	91.882061 
2648.264368  	91.892728 
2650.193184  	91.878144 
2652.122000  	91.910237 
2654.050816  	91.964878 
2655.979632  	91.972859 
2657.908448  	91.965568 
2659.837264  	91.982140 
2661.766080  	91.987450 
2663.694896  	91.985289 
2665.623712  	91.998060 
2667.552528  	91.980316 
2669.481344  	91.982005 
2671.410160  	91.982023 
2673.338976  	92.010992 
2675.267792  	92.047268 
2677.196608  	92.048510 
2679.125424  	92.020665 
2681.054240  	92.023207 
2682.983056  	92.039662 
2684.911872  	92.052231 
2686.840688  	92.057349 
2688.769504  	92.041357 
2690.698320  	92.021449 
2692.627136  	92.043857 
2694.555952  	92.054714 
2696.484768  	92.041549 
2698.413584  	92.043551 
2700.342400  	92.055816 
2702.271216  	92.035277 
2704.200032  	92.016254 
2706.128848  	91.993229 
2708.057664  	92.010021 
2709.986480  	92.006330 
2711.915296  	91.965328 
2713.844112  	91.923212 
2715.772928  	91.912511 
2717.701744  	91.912139 
2719.630560  	91.899859 
2721.559376  	91.871147 
2723.488192  	91.857399 
2725.417008  	91.827771 
2727.345824  	91.839457 
2729.274640  	91.848808 
2731.203456  	91.875371 
2733.132272  	91.866709 
2735.061088  	91.815907 
2736.989904  	91.796473 
2738.918720  	91.795535 
2740.847536  	91.818655 
2742.776352  	91.837162 
2744.705168  	91.808302 
2746.633984  	91.813068 
2748.562800  	91.809853 
2750.491616  	91.791233 
2752.420432  	91.740378 
2754.349248  	91.734600 
2756.278064  	91.749209 
2758.206880  	91.745527 
2760.135696  	91.722225 
2762.064512  	91.689820 
2763.993328  	91.702326 
2765.922144  	91.770033 
2767.850960  	91.767616 
2769.779776  	91.706610 
2771.708592  	91.689189 
2773.637408  	91.701625 
2775.566224  	91.718795 
2777.495040  	91.706659 
2779.423856  	91.653810 
2781.352672  	91.616189 
2783.281488  	91.618306 
2785.210304  	91.624885 
2787.139120  	91.613143 
2789.067936  	91.628041 
2790.996752  	91.659157 
2792.925568  	91.656203 
2794.854384  	91.630707 
2796.783200  	91.599445 
2798.712016  	91.545609 
2800.640832  	91.546646 
2802.569648  	91.548350 
2804.498464  	91.570908 
2806.427280  	91.593642 
2808.356096  	91.588391 
2810.284912  	91.585247 
2812.213728  	91.608633 
2814.142544  	91.579980 
2816.071360  	91.566611 
2818.000176  	91.567968 
2819.928992  	91.567852 
2821.857808  	91.546975 
2823.786624  	91.540515 
2825.715440  	91.550647 
2827.644256  	91.562574 
2829.573072  	91.576404 
2831.501888  	91.599841 
2833.430704  	91.608113 
2835.359520  	91.617050 
2837.288336  	91.646096 
2839.217152  	91.664735 
2841.145968  	91.687936 
2843.074784  	91.781719 
2845.003600  	91.889446 
2846.932416  	91.971706 
2848.861232  	92.063263 
2850.790048  	92.127315 
2852.718864  	92.104292 
2854.647680  	91.977739 
2856.576496  	91.838951 
2858.505312  	91.798769 
2860.434128  	91.775144 
2862.362944  	91.684903 
2864.291760  	91.614125 
2866.220576  	91.587794 
2868.149392  	91.604038 
2870.078208  	91.573489 
2872.007024  	91.543534 
2873.935840  	91.508140 
2875.864656  	91.437555 
2877.793472  	91.402129 
2879.722288  	91.404644 
2881.651104  	91.398024 
2883.579920  	91.385653 
2885.508736  	91.372707 
2887.437552  	91.360700 
2889.366368  	91.376438 
2891.295184  	91.345993 
2893.224000  	91.332711 
2895.152816  	91.366532 
2897.081632  	91.381464 
2899.010448  	91.402431 
2900.939264  	91.419446 
2902.868080  	91.415338 
2904.796896  	91.460578 
2906.725712  	91.485645 
2908.654528  	91.521514 
2910.583344  	91.602325 
2912.512160  	91.728709 
2914.440976  	91.885845 
2916.369792  	92.017398 
2918.298608  	92.004680 
2920.227424  	91.949601 
2922.156240  	91.906034 
2924.085056  	91.877908 
2926.013872  	91.875673 
2927.942688  	91.719672 
2929.871504  	91.578649 
2931.800320  	91.516256 
2933.729136  	91.449812 
2935.657952  	91.381558 
2937.586768  	91.287075 
2939.515584  	91.236958 
2941.444400  	91.188876 
2943.373216  	91.105175 
2945.302032  	91.084774 
2947.230848  	91.085298 
2949.159664  	91.040712 
2951.088480  	90.992933 
2953.017296  	90.942273 
2954.946112  	90.879247 
2956.874928  	90.870260 
2958.803744  	90.893237 
2960.732560  	90.842325 
2962.661376  	90.793873 
2964.590192  	90.760967 
2966.519008  	90.665077 
2968.447824  	90.624251 
2970.376640  	90.537605 
2972.305456  	90.412950 
2974.234272  	90.394026 
2976.163088  	90.416369 
2978.091904  	90.389763 
2980.020720  	90.316598 
2981.949536  	90.230424 
2983.878352  	90.247592 
2985.807168  	90.282161 
2987.735984  	90.298675 
2989.664800  	90.304172 
2991.593616  	90.260767 
2993.522432  	90.239715 
2995.451248  	90.257994 
2997.380064  	90.224410 
2999.308880  	90.174593 
3001.237696  	90.179316 
3003.166512  	90.140649 
3005.095328  	90.156493 
3007.024144  	90.179818 
3008.952960  	90.102569 
3010.881776  	89.938920 
3012.810592  	89.854773 
3014.739408  	89.953323 
3016.668224  	90.110753 
3018.597040  	90.096056 
3020.525856  	89.972704 
3022.454672  	89.904423 
3024.383488  	89.871978 
3026.312304  	89.868401 
3028.241120  	89.851894 
3030.169936  	89.661463 
3032.098752  	89.570824 
3034.027568  	89.652632 
3035.956384  	89.718819 
3037.885200  	89.750120 
3039.814016  	89.752041 
3041.742832  	89.710819 
3043.671648  	89.629296 
3045.600464  	89.522815 
3047.529280  	89.355679 
3049.458096  	89.267286 
3051.386912  	89.208613 
3053.315728  	89.087081 
3055.244544  	88.923430 
3057.173360  	88.851760 
3059.102176  	88.790436 
3061.030992  	88.698411 
3062.959808  	88.541916 
3064.888624  	88.318550 
3066.817440  	88.263730 
3068.746256  	88.354007 
3070.675072  	88.478149 
3072.603888  	88.606680 
3074.532704  	88.637587 
3076.461520  	88.591228 
3078.390336  	88.577373 
3080.319152  	88.616712 
3082.247968  	88.643774 
3084.176784  	88.696198 
3086.105600  	88.765876 
3088.034416  	88.767023 
3089.963232  	88.888378 
3091.892048  	88.890671 
3093.820864  	88.760255 
3095.749680  	88.811951 
3097.678496  	88.869456 
3099.607312  	88.750015 
3101.536128  	88.755578 
3103.464944  	88.854989 
3105.393760  	88.830557 
3107.322576  	88.723446 
3109.251392  	88.764510 
3111.180208  	88.761239 
3113.109024  	88.730468 
3115.037840  	88.723759 
3116.966656  	88.802669 
3118.895472  	88.852839 
3120.824288  	88.753196 
3122.753104  	88.766009 
3124.681920  	88.905496 
3126.610736  	88.997332 
3128.539552  	89.174912 
3130.468368  	89.178655 
3132.397184  	89.075998 
3134.326000  	89.145824 
3136.254816  	89.268134 
3138.183632  	89.368403 
3140.112448  	89.425160 
3142.041264  	89.424781 
3143.970080  	89.470324 
3145.898896  	89.521806 
3147.827712  	89.468990 
3149.756528  	89.430959 
3151.685344  	89.419056 
3153.614160  	89.417682 
3155.542976  	89.443887 
3157.471792  	89.422683 
3159.400608  	89.417289 
3161.329424  	89.396622 
3163.258240  	89.315653 
3165.187056  	89.280042 
3167.115872  	89.216343 
3169.044688  	89.103667 
3170.973504  	89.112874 
3172.902320  	89.103076 
3174.831136  	89.041135 
3176.759952  	88.935575 
3178.688768  	88.956837 
3180.617584  	89.015721 
3182.546400  	88.977481 
3184.475216  	88.912084 
3186.404032  	88.917121 
3188.332848  	88.976664 
3190.261664  	88.992640 
3192.190480  	88.915335 
3194.119296  	88.846504 
3196.048112  	88.677978 
3197.976928  	88.668265 
3199.905744  	88.789638 
3201.834560  	88.705876 
3203.763376  	88.723252 
3205.692192  	88.692293 
3207.621008  	88.575646 
3209.549824  	88.488913 
3211.478640  	88.497252 
3213.407456  	88.568737 
3215.336272  	88.499648 
3217.265088  	88.339739 
3219.193904  	88.287914 
3221.122720  	88.316523 
3223.051536  	88.319617 
3224.980352  	88.296017 
3226.909168  	88.242234 
3228.837984  	88.216420 
3230.766800  	88.289547 
3232.695616  	88.336465 
3234.624432  	88.355204 
3236.553248  	88.269746 
3238.482064  	88.215318 
3240.410880  	88.208787 
3242.339696  	88.158658 
3244.268512  	88.071528 
3246.197328  	88.186455 
3248.126144  	88.297899 
3250.054960  	88.288784 
3251.983776  	88.166764 
3253.912592  	88.080817 
3255.841408  	88.110657 
3257.770224  	88.099363 
3259.699040  	88.167419 
3261.627856  	88.167691 
3263.556672  	88.077006 
3265.485488  	88.069017 
3267.414304  	88.078744 
3269.343120  	88.048181 
3271.271936  	87.980088 
3273.200752  	87.832503 
3275.129568  	87.770488 
3277.058384  	87.887642 
3278.987200  	87.984624 
3280.916016  	87.941426 
3282.844832  	87.911975 
3284.773648  	87.890955 
3286.702464  	87.875053 
3288.631280  	87.929066 
3290.560096  	88.004707 
3292.488912  	87.934204 
3294.417728  	87.947810 
3296.346544  	87.929178 
3298.275360  	87.959577 
3300.204176  	88.095089 
3302.132992  	88.072637 
3304.061808  	87.954675 
3305.990624  	87.792836 
3307.919440  	87.575964 
3309.848256  	87.572797 
3311.777072  	87.627696 
3313.705888  	87.651033 
3315.634704  	87.740121 
3317.563520  	87.762041 
3319.492336  	87.744491 
3321.421152  	87.647397 
3323.349968  	87.545194 
3325.278784  	87.499716 
3327.207600  	87.563164 
3329.136416  	87.614508 
3331.065232  	87.522715 
3332.994048  	87.347548 
3334.922864  	87.269081 
3336.851680  	87.297571 
3338.780496  	87.427557 
3340.709312  	87.533618 
3342.638128  	87.424263 
3344.566944  	87.392043 
3346.495760  	87.421908 
3348.424576  	87.437799 
3350.353392  	87.441475 
3352.282208  	87.327411 
3354.211024  	87.181500 
3356.139840  	87.145979 
3358.068656  	87.146666 
3359.997472  	87.100730 
3361.926288  	87.029765 
3363.855104  	87.034782 
3365.783920  	86.996784 
3367.712736  	87.027615 
3369.641552  	87.148245 
3371.570368  	87.246834 
3373.499184  	87.127739 
3375.428000  	86.995300 
3377.356816  	87.069452 
3379.285632  	87.138217 
3381.214448  	87.102728 
3383.143264  	86.891307 
3385.072080  	86.767887 
3387.000896  	86.945693 
3388.929712  	87.064801 
3390.858528  	86.914890 
3392.787344  	86.805496 
3394.716160  	86.950212 
3396.644976  	86.943009 
3398.573792  	86.923694 
3400.502608  	86.933741 
3402.431424  	87.056257 
3404.360240  	87.114286 
3406.289056  	87.038437 
3408.217872  	87.016867 
3410.146688  	87.096313 
3412.075504  	87.138831 
3414.004320  	87.093719 
3415.933136  	87.089036 
3417.861952  	86.892367 
3419.790768  	86.537391 
3421.719584  	86.715509 
3423.648400  	87.012215 
3425.577216  	87.076296 
3427.506032  	87.159525 
3429.434848  	87.247813 
3431.363664  	87.233547 
3433.292480  	87.245009 
3435.221296  	87.242128 
3437.150112  	87.271424 
3439.078928  	87.282147 
3441.007744  	87.127640 
3442.936560  	87.038191 
3444.865376  	86.694380 
3446.794192  	86.386699 
3448.723008  	86.967088 
3450.651824  	87.405737 
3452.580640  	87.379026 
3454.509456  	87.358301 
3456.438272  	87.408814 
3458.367088  	87.382175 
3460.295904  	87.256602 
3462.224720  	87.153413 
3464.153536  	87.191162 
3466.082352  	87.221926 
3468.011168  	87.383927 
3469.939984  	87.482319 
3471.868800  	87.428673 
3473.797616  	87.409650 
3475.726432  	87.627920 
3477.655248  	87.460109 
3479.584064  	86.875236 
3481.512880  	86.742842 
3483.441696  	87.205749 
3485.370512  	87.337691 
3487.299328  	87.136611 
3489.228144  	87.321541 
3491.156960  	87.602368 
3493.085776  	87.443341 
3495.014592  	87.166163 
3496.943408  	87.378192 
3498.872224  	87.361686 
3500.801040  	86.580925 
3502.729856  	86.135615 
3504.658672  	86.953048 
3506.587488  	87.279639 
3508.516304  	86.738982 
3510.445120  	87.060214 
3512.373936  	87.642168 
3514.302752  	87.882172 
3516.231568  	87.876111 
3518.160384  	87.768684 
3520.089200  	87.538043 
3522.018016  	86.584729 
3523.946832  	86.002220 
3525.875648  	86.125769 
3527.804464  	86.317586 
3529.733280  	87.149733 
3531.662096  	87.949530 
3533.590912  	87.981940 
3535.519728  	87.503609 
3537.448544  	87.868734 
3539.377360  	88.252360 
3541.306176  	88.040029 
3543.234992  	87.501826 
3545.163808  	87.111339 
3547.092624  	87.453621 
3549.021440  	87.874488 
3550.950256  	87.838421 
3552.879072  	87.916553 
3554.807888  	88.265398 
3556.736704  	88.333560 
3558.665520  	88.165810 
3560.594336  	88.026092 
3562.523152  	87.994839 
3564.451968  	87.487256 
3566.380784  	86.981544 
3568.309600  	87.944985 
3570.238416  	88.268343 
3572.167232  	88.498337 
3574.096048  	88.628156 
3576.024864  	88.661005 
3577.953680  	88.605627 
3579.882496  	88.592987 
3581.811312  	88.618000 
3583.740128  	88.591150 
3585.668944  	88.171150 
3587.597760  	88.221668 
3589.526576  	89.050210 
3591.455392  	88.836512 
3593.384208  	88.542777 
3595.313024  	88.520426 
3597.241840  	88.629276 
3599.170656  	88.665865 
3601.099472  	88.963004 
3603.028288  	89.213189 
3604.957104  	89.266383 
3606.885920  	89.408469 
3608.814736  	89.711018 
3610.743552  	89.686592 
3612.672368  	89.294492 
3614.601184  	89.328722 
3616.530000  	89.625099 
3618.458816  	89.760810 
3620.387632  	90.037111 
3622.316448  	90.004079 
3624.245264  	90.010387 
3626.174080  	90.294050 
3628.102896  	90.364878 
3630.031712  	90.795615 
3631.960528  	90.350135 
3633.889344  	90.412227 
3635.818160  	90.578389 
3637.746976  	90.628760 
3639.675792  	90.637907 
3641.604608  	90.650503 
3643.533424  	91.004570 
3645.462240  	91.312831 
3647.391056  	91.024028 
3649.319872  	91.156899 
3651.248688  	92.026891 
3653.177504  	91.756677 
3655.106320  	91.834125 
3657.035136  	92.009074 
3658.963952  	91.721461 
3660.892768  	91.704351 
3662.821584  	91.776730 
3664.750400  	91.780555 
3666.679216  	92.115081 
3668.608032  	92.259259 
3670.536848  	92.292050 
3672.465664  	92.318334 
3674.394480  	92.308209 
3676.323296  	92.199215 
3678.252112  	91.658431 
3680.180928  	91.497485 
3682.109744  	91.300830 
3684.038560  	91.353090 
3685.967376  	92.056511 
3687.896192  	92.545437 
3689.825008  	91.930124 
3691.753824  	91.731843 
3693.682640  	91.271393 
3695.611456  	90.953729 
3697.540272  	91.159755 
3699.469088  	91.434886 
3701.397904  	91.585838 
3703.326720  	91.571761 
3705.255536  	91.214426 
3707.184352  	91.589278 
3709.113168  	91.736511 
3711.041984  	91.397944 
3712.970800  	91.845563 
3714.899616  	91.512868 
3716.828432  	91.361261 
3718.757248  	91.274685 
3720.686064  	90.984183 
3722.614880  	90.371784 
3724.543696  	90.080130 
3726.472512  	90.312593 
3728.401328  	90.983250 
3730.330144  	91.725342 
3732.258960  	91.957262 
3734.187776  	90.531980 
3736.116592  	90.479288 
3738.045408  	90.863459 
3739.974224  	90.745162 
3741.903040  	92.129671 
3743.831856  	93.659727 
3745.760672  	92.981577 
3747.689488  	92.097198 
3749.618304  	92.182981 
3751.547120  	92.055065 
3753.475936  	91.962150 
3755.404752  	91.394209 
3757.333568  	91.288912 
3759.262384  	91.320514 
3761.191200  	91.641483 
3763.120016  	91.255102 
3765.048832  	91.229019 
3766.977648  	91.506349 
3768.906464  	91.741291 
3770.835280  	91.868684 
3772.764096  	91.644390 
3774.692912  	91.576570 
3776.621728  	91.713274 
3778.550544  	91.759237 
3780.479360  	91.856248 
3782.408176  	91.303595 
3784.336992  	90.924624 
3786.265808  	91.049921 
3788.194624  	91.308046 
3790.123440  	91.442391 
3792.052256  	91.529702 
3793.981072  	91.506405 
3795.909888  	91.424876 
3797.838704  	91.490141 
3799.767520  	91.918128 
3801.696336  	91.996926 
3803.625152  	91.657257 
3805.553968  	91.633988 
3807.482784  	91.999407 
3809.411600  	91.463549 
3811.340416  	91.171563 
3813.269232  	91.546371 
3815.198048  	91.955453 
3817.126864  	91.692904 
3819.055680  	91.279128 
3820.984496  	91.518717 
3822.913312  	91.325331 
3824.842128  	90.534407 
3826.770944  	90.510614 
3828.699760  	90.796487 
3830.628576  	91.160169 
3832.557392  	91.262930 
3834.486208  	91.279753 
3836.415024  	91.194755 
3838.343840  	90.618652 
3840.272656  	90.436277 
3842.201472  	90.522983 
3844.130288  	90.524429 
3846.059104  	90.470455 
3847.987920  	90.224048 
3849.916736  	90.570668 
3851.845552  	91.622556 
3853.774368  	92.478532 
3855.703184  	91.232856 
3857.632000  	90.039667 
3859.560816  	90.145470 
3861.489632  	90.167672 
3863.418448  	89.954053 
3865.347264  	90.425390 
3867.276080  	90.567862 
3869.204896  	90.176247 
3871.133712  	90.161493 
3873.062528  	90.011077 
3874.991344  	90.443408 
3876.920160  	90.285781 
3878.848976  	90.103236 
3880.777792  	89.835647 
3882.706608  	89.831790 
3884.635424  	90.271546 
3886.564240  	90.977278 
3888.493056  	90.470647 
3890.421872  	90.156306 
3892.350688  	90.057349 
3894.279504  	90.121168 
3896.208320  	90.202814 
3898.137136  	90.185727 
3900.065952  	90.212624 
3901.994768  	89.997516 
3903.923584  	89.852876 
3905.852400  	90.400178 
3907.781216  	90.852073 
3909.710032  	91.044159 
3911.638848  	90.987042 
3913.567664  	90.871863 
3915.496480  	90.453400 
3917.425296  	90.413139 
3919.354112  	90.715670 
3921.282928  	90.547338 
3923.211744  	90.051066 
3925.140560  	90.185986 
3927.069376  	90.472365 
3928.998192  	90.078062 
3930.927008  	89.825790 
3932.855824  	90.124147 
3934.784640  	90.583330 
3936.713456  	90.578997 
3938.642272  	90.497075 
3940.571088  	90.300621 
3942.499904  	90.018362 
3944.428720  	90.166848 
3946.357536  	89.904761 
3948.286352  	89.637859 
3950.215168  	90.002694 
3952.143984  	90.352542 
3954.072800  	90.408312 
3956.001616  	90.263451 
3957.930432  	90.241882 
3959.859248  	90.151400 
3961.788064  	90.120520 
3963.716880  	90.507990 
3965.645696  	90.725082 
3967.574512  	90.456789 
3969.503328  	90.269778 
3971.432144  	90.240650 
3973.360960  	90.094149 
3975.289776  	90.084812 
3977.218592  	90.403436 
3979.147408  	90.554904 
3981.076224  	90.457627 
3983.005040  	90.526077 
3984.933856  	90.625748 
3986.862672  	90.531286 
3988.791488  	90.308939 
3990.720304  	90.276524 
3992.649120  	90.419618 
3994.577936  	90.463180 
3996.506752  	90.592091 
3998.435568  	90.608397 
4000.364384  	90.527635 